[GPU 7][JOB 16] 'python cli.py minimax --n 1024 --lengthscale 0.5 --sigma-f2-true 4.0 --sigma-eps2-true 1.0 --n-epochs 2000000 --print-every 800 --device auto --kernel-mode finite --a 1.e-4 --b 40e-3 --w-init-scale 0.001 --num-features 128 --mu-increase-factor 1.0 --mu-increase-epochs 0 --mu 1.e6 --lr-decay 1.0 --lr-decay-every-epochs 0 --seed 1 --batch-size 1024 --sigma-f2-init 6.0  --sigma-eps2-init 2.0 --penalty-normalization relative     --real-psi-if-full-batch '
[CLI] Using torch default dtype torch.float64.

=== MINIMAX + ORF (TMLR) ===  ψ = (g(θ) + log|A| + μ‖A-F‖/‖A‖)/n
iter	epoch	σ_f²	σ_ε²	real_nlml	real_nlml_true	real_nlml_abs_err	orf_nlml	orf_nlml_true	μ	|A-F|/|A|	|A-F|		|A|		|F|		cosAF	|B|	cosBΔ	pen/pen*	lr_scale	ψ_real	g(θ)/n		‖Φw-y‖²/(nσ_ε²)	‖w‖²/n	((n-d)logσ_ε²)/n	(log|A|)/n	μ‖A-F‖/‖A‖/n	||grad_psi_real||	||grad||	duration_s	wall_time_s
 800	800	 6.1270	 1.9945	   1.5744	        1.4676	          0.1068	   1.5744	        1.4676	1000000.0000	2.104e-02	3.201e+01	1.521e+03	1.553e+03	 1.0000	 0.0000	 0.0000	 0.0000	 1.00000	  21.8593	   1.0854	   0.4569	   0.0244	   0.6041	   0.2253	  20.5486	9.917e+02	1.270e-01	   8.053	   320.546
1600	1600	 6.4282	 1.9919	   1.5744	        1.4676	          0.1068	   1.5744	        1.4676	1000000.0000	7.095e-02	1.079e+02	1.521e+03	1.629e+03	 1.0000	 0.0000	 0.0000	 0.0000	 1.00000	  70.6025	   1.0861	   0.4587	   0.0244	   0.6030	   0.2253	  69.2911	1.041e+03	1.270e-01	   4.284	   594.546
2400	2400	 5.5531	 1.9906	   1.5734	        1.4676	          0.1057	   1.5734	        1.4676	1000000.0000	7.410e-02	1.127e+02	1.521e+03	1.409e+03	 1.0000	 0.0000	 0.0000	 0.0000	 1.00000	  73.6769	   1.0898	   0.4630	   0.0244	   0.6024	   0.2253	  72.3618	8.989e+02	1.271e-01	   5.061	   897.028
3200	3200	 6.1687	 1.9890	   1.5738	        1.4676	          0.1061	   1.5738	        1.4676	1000000.0000	2.792e-02	4.248e+01	1.521e+03	1.564e+03	 1.0000	 0.0000	 0.0000	 0.0000	 1.00000	  28.5785	   1.0842	   0.4581	   0.0244	   0.6017	   0.2253	  27.2690	9.985e+02	1.271e-01	   4.725	  1205.533
4000	4000	 5.6381	 1.9888	   1.5732	        1.4676	          0.1056	   1.5732	        1.4676	1000000.0000	6.002e-02	9.130e+01	1.521e+03	1.430e+03	 1.0000	 0.0000	 0.0000	 0.0000	 1.00000	  59.9255	   1.0880	   0.4619	   0.0244	   0.6016	   0.2253	  58.6122	9.127e+02	1.271e-01	   5.784	  1515.995
4800	4800	 5.7432	 1.9890	   1.5734	        1.4676	          0.1057	   1.5734	        1.4676	1000000.0000	4.259e-02	6.479e+01	1.521e+03	1.456e+03	 1.0000	 0.0000	 0.0000	 0.0000	 1.00000	  42.9014	   1.0866	   0.4605	   0.0244	   0.6017	   0.2253	  41.5895	9.297e+02	1.271e-01	   5.236	  1830.498
5600	5600	 6.2303	 1.9891	   1.5738	        1.4676	          0.1062	   1.5738	        1.4676	1000000.0000	3.813e-02	5.801e+01	1.521e+03	1.579e+03	 1.0000	 0.0000	 0.0000	 0.0000	 1.00000	  38.5500	   1.0844	   0.4582	   0.0244	   0.6017	   0.2253	  37.2403	1.008e+03	1.271e-01	   5.929	  2145.259
6400	6400	 6.5177	 1.9896	   1.5742	        1.4676	          0.1066	   1.5742	        1.4676	1000000.0000	8.578e-02	1.305e+02	1.521e+03	1.652e+03	 1.0000	 0.0000	 0.0000	 0.0000	 1.00000	  85.0783	   1.0865	   0.4601	   0.0244	   0.6019	   0.2253	  83.7666	1.055e+03	1.271e-01	   3.595	  2446.327
7200	7200	 6.0615	 1.9895	   1.5737	        1.4676	          0.1061	   1.5737	        1.4676	1000000.0000	1.017e-02	1.547e+01	1.521e+03	1.537e+03	 1.0000	 0.0000	 0.0000	 0.0000	 1.00000	  11.2377	   1.0844	   0.4581	   0.0244	   0.6019	   0.2253	   9.9280	9.811e+02	1.271e-01	   5.647	  2759.366
8000	8000	 5.4511	 1.9885	   1.5730	        1.4676	          0.1054	   1.5730	        1.4676	1000000.0000	9.100e-02	1.384e+02	1.521e+03	1.383e+03	 1.0000	 0.0000	 0.0000	 0.0000	 1.00000	  90.1843	   1.0914	   0.4655	   0.0244	   0.6014	   0.2253	  88.8677	8.824e+02	1.271e-01	   4.992	  3051.107
8800	8800	 6.1251	 1.9888	   1.5737	        1.4676	          0.1061	   1.5737	        1.4676	1000000.0000	2.070e-02	3.149e+01	1.521e+03	1.553e+03	 1.0000	 0.0000	 0.0000	 0.0000	 1.00000	  21.5270	   1.0842	   0.4582	   0.0244	   0.6016	   0.2253	  20.2175	9.914e+02	1.271e-01	   5.574	  3366.761
9600	9600	 5.6541	 1.9887	   1.5732	        1.4676	          0.1056	   1.5732	        1.4676	1000000.0000	5.736e-02	8.726e+01	1.521e+03	1.434e+03	 1.0000	 0.0000	 0.0000	 0.0000	 1.00000	  57.3313	   1.0877	   0.4617	   0.0244	   0.6015	   0.2253	  56.0184	9.153e+02	1.271e-01	   5.442	  3677.217
10400	10400	 5.8431	 1.9886	   1.5734	        1.4676	          0.1058	   1.5734	        1.4676	1000000.0000	2.604e-02	3.961e+01	1.521e+03	1.482e+03	 1.0000	 0.0000	 0.0000	 0.0000	 1.00000	  26.7388	   1.0854	   0.4595	   0.0244	   0.6015	   0.2253	  25.4281	9.458e+02	1.271e-01	   6.682	  3984.991
11200	11200	 5.9555	 1.9886	   1.5735	        1.4676	          0.1059	   1.5735	        1.4676	1000000.0000	7.401e-03	1.126e+01	1.521e+03	1.510e+03	 1.0000	 0.0000	 0.0000	 0.0000	 1.00000	   8.5376	   1.0846	   0.4587	   0.0244	   0.6015	   0.2253	   7.2277	9.639e+02	1.271e-01	   4.960	  4302.207
12000	12000	 6.5651	 1.9884	   1.5741	        1.4676	          0.1065	   1.5741	        1.4676	1000000.0000	9.364e-02	1.424e+02	1.521e+03	1.664e+03	 1.0000	 0.0000	 0.0000	 0.0000	 1.00000	  92.7551	   1.0868	   0.4610	   0.0244	   0.6014	   0.2253	  91.4430	1.063e+03	1.271e-01	   3.784	  4604.306
12800	12800	 6.4871	 1.9878	   1.5739	        1.4676	          0.1063	   1.5739	        1.4676	1000000.0000	8.071e-02	1.228e+02	1.521e+03	1.644e+03	 1.0000	 0.0000	 0.0000	 0.0000	 1.00000	  80.1277	   1.0858	   0.4602	   0.0244	   0.6011	   0.2253	  78.8166	1.050e+03	1.271e-01	   4.871	  4917.963
13600	13600	 6.2933	 1.9878	   1.5737	        1.4676	          0.1061	   1.5737	        1.4676	1000000.0000	4.858e-02	7.391e+01	1.521e+03	1.595e+03	 1.0000	 0.0000	 0.0000	 0.0000	 1.00000	  48.7543	   1.0844	   0.4588	   0.0244	   0.6012	   0.2253	  47.4446	1.019e+03	1.271e-01	   5.768	  5213.071
14400	14400	 6.1177	 1.9877	   1.5736	        1.4676	          0.1059	   1.5736	        1.4676	1000000.0000	1.947e-02	2.962e+01	1.521e+03	1.551e+03	 1.0000	 0.0000	 0.0000	 0.0000	 1.00000	  20.3228	   1.0840	   0.4584	   0.0244	   0.6011	   0.2253	  19.0136	9.902e+02	1.271e-01	   6.937	  5523.116
15200	15200	 5.9951	 1.9874	   1.5734	        1.4676	          0.1057	   1.5734	        1.4676	1000000.0000	8.533e-04	1.298e+00	1.521e+03	1.520e+03	 1.0000	 0.0000	 0.0000	 0.0000	 1.00000	   2.1427	   1.0842	   0.4588	   0.0244	   0.6010	   0.2253	   0.8333	9.664e+02	1.271e-01	   5.590	  5845.915
16000	16000	 5.9003	 1.9881	   1.5734	        1.4676	          0.1057	   1.5734	        1.4676	1000000.0000	1.656e-02	2.519e+01	1.521e+03	1.496e+03	 1.0000	 0.0000	 0.0000	 0.0000	 1.00000	  17.4815	   1.0848	   0.4591	   0.0244	   0.6013	   0.2252	  16.1714	9.550e+02	1.271e-01	   6.873	  6153.928
16800	16800	 6.0614	 1.9881	   1.5735	        1.4676	          0.1059	   1.5735	        1.4676	1000000.0000	1.014e-02	1.543e+01	1.521e+03	1.537e+03	 1.0000	 0.0000	 0.0000	 0.0000	 1.00000	  11.2115	   1.0841	   0.4584	   0.0244	   0.6013	   0.2252	   9.9021	9.811e+02	1.271e-01	   5.610	  6446.025
17600	17600	 5.6419	 1.9877	   1.5731	        1.4676	          0.1055	   1.5731	        1.4676	1000000.0000	5.939e-02	9.034e+01	1.521e+03	1.431e+03	 1.0000	 0.0000	 0.0000	 0.0000	 1.00000	  59.3068	   1.0876	   0.4621	   0.0244	   0.6011	   0.2252	  57.9940	9.133e+02	1.271e-01	   4.710	  6766.946
18400	18400	 5.7025	 1.9871	   1.5731	        1.4676	          0.1054	   1.5731	        1.4676	1000000.0000	4.934e-02	7.506e+01	1.521e+03	1.446e+03	 1.0000	 0.0000	 0.0000	 0.0000	 1.00000	  49.4971	   1.0866	   0.4613	   0.0244	   0.6008	   0.2252	  48.1853	9.231e+02	1.271e-01	   5.694	  7075.963
19200	19200	 5.6373	 1.9877	   1.5731	        1.4676	          0.1054	   1.5731	        1.4676	1000000.0000	6.015e-02	9.150e+01	1.521e+03	1.430e+03	 1.0000	 0.0000	 0.0000	 0.0000	 1.00000	  60.0494	   1.0877	   0.4621	   0.0244	   0.6011	   0.2252	  58.7365	9.125e+02	1.271e-01	   4.845	  7384.216
20000	20000	 6.1675	 1.9873	   1.5736	        1.4676	          0.1059	   1.5736	        1.4676	1000000.0000	2.773e-02	4.219e+01	1.521e+03	1.563e+03	 1.0000	 0.0000	 0.0000	 0.0000	 1.00000	  28.3902	   1.0839	   0.4586	   0.0244	   0.6009	   0.2252	  27.0810	9.983e+02	1.271e-01	   5.453	  7686.829
20800	20800	 6.2067	 1.9875	   1.5736	        1.4676	          0.1060	   1.5736	        1.4676	1000000.0000	3.423e-02	5.208e+01	1.521e+03	1.573e+03	 1.0000	 0.0000	 0.0000	 0.0000	 1.00000	  34.7397	   1.0840	   0.4586	   0.0244	   0.6010	   0.2252	  33.4305	1.005e+03	1.271e-01	   4.947	  7996.039
21600	21600	 6.3693	 1.9869	   1.5737	        1.4676	          0.1061	   1.5737	        1.4676	1000000.0000	6.117e-02	9.306e+01	1.521e+03	1.614e+03	 1.0000	 0.0000	 0.0000	 0.0000	 1.00000	  61.0509	   1.0847	   0.4595	   0.0244	   0.6008	   0.2252	  59.7410	1.031e+03	1.271e-01	   6.397	  8308.699
22400	22400	 6.0001	 1.9867	   1.5733	        1.4676	          0.1057	   1.5733	        1.4676	1000000.0000	7.870e-05	1.197e-01	1.521e+03	1.521e+03	 1.0000	 0.0000	 0.0000	 0.0000	 1.00000	   1.3861	   1.0840	   0.4589	   0.0244	   0.6007	   0.2252	   0.0769	2.463e+02	1.271e-01	   4.749	  8613.850
23200	23200	 6.4301	 1.9871	   1.5738	        1.4676	          0.1062	   1.5738	        1.4676	1000000.0000	7.125e-02	1.084e+02	1.521e+03	1.630e+03	 1.0000	 0.0000	 0.0000	 0.0000	 1.00000	  70.8919	   1.0852	   0.4599	   0.0244	   0.6008	   0.2252	  69.5815	1.041e+03	1.271e-01	   5.995	  8932.730
24000	24000	 6.2901	 1.9869	   1.5736	        1.4676	          0.1060	   1.5736	        1.4676	1000000.0000	4.804e-02	7.309e+01	1.521e+03	1.594e+03	 1.0000	 0.0000	 0.0000	 0.0000	 1.00000	  48.2278	   1.0842	   0.4590	   0.0245	   0.6008	   0.2252	  46.9184	1.018e+03	1.271e-01	   5.098	  9243.408
24800	24800	 6.0222	 1.9871	   1.5734	        1.4676	          0.1057	   1.5734	        1.4676	1000000.0000	3.640e-03	5.537e+00	1.521e+03	1.527e+03	 1.0000	 0.0000	 0.0000	 0.0000	 1.00000	   4.8637	   1.0840	   0.4587	   0.0245	   0.6008	   0.2252	   3.5544	9.745e+02	1.271e-01	   7.447	  9563.527
25600	25600	 6.3836	 1.9867	   1.5737	        1.4676	          0.1060	   1.5737	        1.4676	1000000.0000	6.355e-02	9.668e+01	1.521e+03	1.618e+03	 1.0000	 0.0000	 0.0000	 0.0000	 1.00000	  63.3708	   1.0847	   0.4596	   0.0245	   0.6007	   0.2252	  62.0609	1.033e+03	1.271e-01	   5.118	  9844.566
26400	26400	 6.2930	 1.9862	   1.5735	        1.4676	          0.1059	   1.5735	        1.4676	1000000.0000	4.853e-02	7.383e+01	1.521e+03	1.595e+03	 1.0000	 0.0000	 0.0000	 0.0000	 1.00000	  48.7053	   1.0841	   0.4592	   0.0245	   0.6004	   0.2252	  47.3960	1.019e+03	1.271e-01	   7.786	 10169.282
27200	27200	 6.4336	 1.9864	   1.5737	        1.4676	          0.1061	   1.5737	        1.4676	1000000.0000	7.183e-02	1.093e+02	1.521e+03	1.631e+03	 1.0000	 0.0000	 0.0000	 0.0000	 1.00000	  71.4568	   1.0851	   0.4601	   0.0245	   0.6005	   0.2252	  70.1466	1.041e+03	1.271e-01	   5.855	 10481.823
28000	28000	 5.9569	 1.9862	   1.5732	        1.4676	          0.1056	   1.5732	        1.4676	1000000.0000	7.174e-03	1.091e+01	1.521e+03	1.510e+03	 1.0000	 0.0000	 0.0000	 0.0000	 1.00000	   8.3150	   1.0841	   0.4592	   0.0245	   0.6005	   0.2252	   7.0057	9.642e+02	1.271e-01	   6.186	 10776.149
28800	28800	 5.9007	 1.9856	   1.5731	        1.4676	          0.1054	   1.5731	        1.4676	1000000.0000	1.649e-02	2.509e+01	1.521e+03	1.496e+03	 1.0000	 0.0000	 0.0000	 0.0000	 1.00000	  17.4141	   1.0843	   0.4597	   0.0245	   0.6002	   0.2252	  16.1046	9.551e+02	1.271e-01	   5.616	 11102.208
29600	29600	 5.4625	 1.9864	   1.5728	        1.4676	          0.1051	   1.5728	        1.4676	1000000.0000	8.912e-02	1.356e+02	1.521e+03	1.386e+03	 1.0000	 0.0000	 0.0000	 0.0000	 1.00000	  88.3465	   1.0906	   0.4656	   0.0245	   0.6005	   0.2252	  87.0308	8.843e+02	1.271e-01	   6.022	 11411.543
30400	30400	 6.5753	 1.9871	   1.5739	        1.4676	          0.1063	   1.5739	        1.4676	1000000.0000	9.532e-02	1.450e+02	1.521e+03	1.666e+03	 1.0000	 0.0000	 0.0000	 0.0000	 1.00000	  94.3992	   1.0868	   0.4615	   0.0245	   0.6008	   0.2252	  93.0873	1.064e+03	1.271e-01	   5.538	 11735.458
31200	31200	 6.0322	 1.9862	   1.5733	        1.4676	          0.1056	   1.5733	        1.4676	1000000.0000	5.293e-03	8.052e+00	1.521e+03	1.529e+03	 1.0000	 0.0000	 0.0000	 0.0000	 1.00000	   6.4777	   1.0838	   0.4589	   0.0245	   0.6004	   0.2252	   5.1687	9.763e+02	1.271e-01	   5.436	 12075.475
32000	32000	 6.3295	 1.9867	   1.5736	        1.4676	          0.1060	   1.5736	        1.4676	1000000.0000	5.457e-02	8.302e+01	1.521e+03	1.604e+03	 1.0000	 0.0000	 0.0000	 0.0000	 1.00000	  54.6023	   1.0844	   0.4593	   0.0245	   0.6007	   0.2252	  53.2927	1.025e+03	1.271e-01	   6.121	 12389.118
32800	32800	 6.5566	 1.9866	   1.5739	        1.4676	          0.1062	   1.5739	        1.4676	1000000.0000	9.222e-02	1.403e+02	1.521e+03	1.662e+03	 1.0000	 0.0000	 0.0000	 0.0000	 1.00000	  91.3716	   1.0865	   0.4614	   0.0245	   0.6006	   0.2252	  90.0599	1.061e+03	1.271e-01	   5.530	 12691.184
33600	33600	 5.8971	 1.9862	   1.5731	        1.4676	          0.1055	   1.5731	        1.4676	1000000.0000	1.710e-02	2.601e+01	1.521e+03	1.495e+03	 1.0000	 0.0000	 0.0000	 0.0000	 1.00000	  18.0041	   1.0845	   0.4596	   0.0245	   0.6004	   0.2252	  16.6944	9.545e+02	1.271e-01	   4.077	 13027.906
34400	34400	 5.7978	 1.9856	   1.5730	        1.4676	          0.1053	   1.5730	        1.4676	1000000.0000	3.355e-02	5.104e+01	1.521e+03	1.470e+03	 1.0000	 0.0000	 0.0000	 0.0000	 1.00000	  34.0761	   1.0852	   0.4605	   0.0245	   0.6002	   0.2252	  32.7657	9.385e+02	1.271e-01	   7.539	 13356.027
35200	35200	 5.7359	 1.9854	   1.5729	        1.4676	          0.1052	   1.5729	        1.4676	1000000.0000	4.382e-02	6.666e+01	1.521e+03	1.455e+03	 1.0000	 0.0000	 0.0000	 0.0000	 1.00000	  44.1013	   1.0858	   0.4613	   0.0245	   0.6001	   0.2252	  42.7903	9.285e+02	1.271e-01	   5.796	 13657.425
36000	36000	 6.4867	 1.9858	   1.5737	        1.4676	          0.1060	   1.5737	        1.4676	1000000.0000	8.062e-02	1.227e+02	1.521e+03	1.644e+03	 1.0000	 0.0000	 0.0000	 0.0000	 1.00000	  80.0452	   1.0855	   0.4608	   0.0245	   0.6003	   0.2251	  78.7345	1.050e+03	1.271e-01	   4.982	 13967.696
36800	36800	 6.1811	 1.9856	   1.5734	        1.4676	          0.1057	   1.5734	        1.4676	1000000.0000	2.998e-02	4.561e+01	1.521e+03	1.567e+03	 1.0000	 0.0000	 0.0000	 0.0000	 1.00000	  30.5867	   1.0836	   0.4590	   0.0245	   0.6002	   0.2251	  29.2779	1.000e+03	1.271e-01	   6.139	 14299.634
37600	37600	 5.9625	 1.9849	   1.5731	        1.4676	          0.1054	   1.5731	        1.4676	1000000.0000	6.257e-03	9.519e+00	1.521e+03	1.512e+03	 1.0000	 0.0000	 0.0000	 0.0000	 1.00000	   7.4194	   1.0838	   0.4595	   0.0245	   0.5999	   0.2251	   6.1104	9.650e+02	1.271e-01	   6.953	 14611.022
38400	38400	 6.3703	 1.9853	   1.5735	        1.4676	          0.1059	   1.5735	        1.4676	1000000.0000	6.133e-02	9.331e+01	1.521e+03	1.615e+03	 1.0000	 0.0000	 0.0000	 0.0000	 1.00000	  61.2066	   1.0844	   0.4599	   0.0245	   0.6001	   0.2251	  59.8970	1.031e+03	1.271e-01	   6.589	 14912.412
39200	39200	 5.6845	 1.9844	   1.5727	        1.4676	          0.1051	   1.5727	        1.4676	1000000.0000	5.234e-02	7.962e+01	1.521e+03	1.442e+03	 1.0000	 0.0000	 0.0000	 0.0000	 1.00000	  52.4249	   1.0863	   0.4622	   0.0245	   0.5997	   0.2251	  51.1135	9.202e+02	1.271e-01	   4.951	 15227.178
40000	40000	 6.4965	 1.9851	   1.5736	        1.4676	          0.1060	   1.5736	        1.4676	1000000.0000	8.226e-02	1.251e+02	1.521e+03	1.646e+03	 1.0000	 0.0000	 0.0000	 0.0000	 1.00000	  81.6408	   1.0855	   0.4611	   0.0245	   0.6000	   0.2251	  80.3302	1.052e+03	1.271e-01	   5.138	 15533.019
40800	40800	 5.5847	 1.9840	   1.5726	        1.4676	          0.1049	   1.5726	        1.4676	1000000.0000	6.888e-02	1.048e+02	1.521e+03	1.416e+03	 1.0000	 0.0000	 0.0000	 0.0000	 1.00000	  68.5825	   1.0877	   0.4638	   0.0245	   0.5995	   0.2251	  67.2696	9.040e+02	1.271e-01	   5.143	 15847.748
41600	41600	 5.4522	 1.9852	   1.5726	        1.4676	          0.1050	   1.5726	        1.4676	1000000.0000	9.083e-02	1.382e+02	1.521e+03	1.383e+03	 1.0000	 0.0000	 0.0000	 0.0000	 1.00000	  90.0209	   1.0905	   0.4661	   0.0245	   0.6000	   0.2251	  88.7053	8.826e+02	1.271e-01	   6.930	 16150.176
42400	42400	 6.3473	 1.9851	   1.5735	        1.4676	          0.1058	   1.5735	        1.4676	1000000.0000	5.752e-02	8.750e+01	1.521e+03	1.609e+03	 1.0000	 0.0000	 0.0000	 0.0000	 1.00000	  57.4775	   1.0842	   0.4598	   0.0245	   0.6000	   0.2251	  56.1682	1.027e+03	1.271e-01	   8.876	 16477.559
43200	43200	 6.0028	 1.9837	   1.5729	        1.4676	          0.1053	   1.5729	        1.4676	1000000.0000	4.242e-04	6.453e-01	1.521e+03	1.522e+03	 1.0000	 0.0000	 0.0000	 0.0000	 1.00000	   1.7228	   1.0834	   0.4596	   0.0245	   0.5994	   0.2251	   0.4143	9.536e+02	1.271e-01	   5.415	 16783.489
44000	44000	 6.1791	 1.9838	   1.5731	        1.4676	          0.1055	   1.5731	        1.4676	1000000.0000	2.964e-02	4.508e+01	1.521e+03	1.566e+03	 1.0000	 0.0000	 0.0000	 0.0000	 1.00000	  30.2498	   1.0832	   0.4594	   0.0245	   0.5994	   0.2251	  28.9415	1.000e+03	1.271e-01	   4.627	 17085.567
44800	44800	 5.6823	 1.9837	   1.5726	        1.4676	          0.1050	   1.5726	        1.4676	1000000.0000	5.270e-02	8.017e+01	1.521e+03	1.441e+03	 1.0000	 0.0000	 0.0000	 0.0000	 1.00000	  52.7770	   1.0861	   0.4623	   0.0245	   0.5994	   0.2251	  51.4658	9.198e+02	1.271e-01	   4.757	 17409.610
45600	45600	 5.4704	 1.9847	   1.5726	        1.4676	          0.1049	   1.5726	        1.4676	1000000.0000	8.782e-02	1.336e+02	1.521e+03	1.388e+03	 1.0000	 0.0000	 0.0000	 0.0000	 1.00000	  87.0760	   1.0900	   0.4658	   0.0245	   0.5998	   0.2251	  85.7609	8.855e+02	1.271e-01	  11.248	 17728.202
46400	46400	 6.4490	 1.9846	   1.5735	        1.4676	          0.1059	   1.5735	        1.4676	1000000.0000	7.438e-02	1.132e+02	1.521e+03	1.634e+03	 1.0000	 0.0000	 0.0000	 0.0000	 1.00000	  73.9474	   1.0849	   0.4607	   0.0245	   0.5997	   0.2251	  72.6374	1.044e+03	1.271e-01	   8.364	 18039.882
47200	47200	 5.7520	 1.9838	   1.5727	        1.4676	          0.1051	   1.5727	        1.4676	1000000.0000	4.115e-02	6.261e+01	1.521e+03	1.459e+03	 1.0000	 0.0000	 0.0000	 0.0000	 1.00000	  41.5005	   1.0853	   0.4614	   0.0245	   0.5994	   0.2251	  40.1901	9.311e+02	1.271e-01	   4.979	 18355.758
48000	48000	 6.5099	 1.9854	   1.5737	        1.4676	          0.1060	   1.5737	        1.4676	1000000.0000	8.447e-02	1.285e+02	1.521e+03	1.650e+03	 1.0000	 0.0000	 0.0000	 0.0000	 1.00000	  83.8059	   1.0857	   0.4611	   0.0245	   0.6001	   0.2251	  82.4951	1.054e+03	1.271e-01	   4.558	 18659.882
48800	48800	 5.7390	 1.9847	   1.5728	        1.4676	          0.1052	   1.5728	        1.4676	1000000.0000	4.330e-02	6.587e+01	1.521e+03	1.455e+03	 1.0000	 0.0000	 0.0000	 0.0000	 1.00000	  43.5930	   1.0856	   0.4614	   0.0245	   0.5998	   0.2251	  42.2823	9.290e+02	1.271e-01	   5.849	 18968.551
49600	49600	 6.0053	 1.9840	   1.5730	        1.4676	          0.1053	   1.5730	        1.4676	1000000.0000	8.361e-04	1.272e+00	1.521e+03	1.523e+03	 1.0000	 0.0000	 0.0000	 0.0000	 1.00000	   2.1250	   1.0834	   0.4595	   0.0245	   0.5995	   0.2251	   0.8165	9.681e+02	1.271e-01	   4.923	 19287.550
50400	50400	 5.4688	 1.9832	   1.5724	        1.4676	          0.1047	   1.5724	        1.4676	1000000.0000	8.808e-02	1.340e+02	1.521e+03	1.387e+03	 1.0000	 0.0000	 0.0000	 0.0000	 1.00000	  87.3316	   1.0897	   0.4661	   0.0245	   0.5991	   0.2251	  86.0168	8.853e+02	1.271e-01	   5.379	 19592.377
51200	51200	 6.4975	 1.9835	   1.5734	        1.4676	          0.1058	   1.5734	        1.4676	1000000.0000	8.241e-02	1.254e+02	1.521e+03	1.647e+03	 1.0000	 0.0000	 0.0000	 0.0000	 1.00000	  81.7934	   1.0852	   0.4615	   0.0245	   0.5993	   0.2251	  80.4832	1.052e+03	1.271e-01	   6.401	 19923.811
52000	52000	 5.9655	 1.9835	   1.5729	        1.4676	          0.1052	   1.5729	        1.4676	1000000.0000	5.760e-03	8.763e+00	1.521e+03	1.513e+03	 1.0000	 0.0000	 0.0000	 0.0000	 1.00000	   6.9338	   1.0835	   0.4598	   0.0245	   0.5992	   0.2251	   5.6252	9.655e+02	1.271e-01	   4.808	 20229.911
52800	52800	 5.9106	 1.9849	   1.5730	        1.4676	          0.1053	   1.5730	        1.4676	1000000.0000	1.485e-02	2.259e+01	1.521e+03	1.499e+03	 1.0000	 0.0000	 0.0000	 0.0000	 1.00000	  15.8112	   1.0841	   0.4598	   0.0245	   0.5999	   0.2251	  14.5020	9.567e+02	1.271e-01	   5.014	 20543.132
53600	53600	 5.5097	 1.9831	   1.5724	        1.4676	          0.1048	   1.5724	        1.4676	1000000.0000	8.131e-02	1.237e+02	1.521e+03	1.398e+03	 1.0000	 0.0000	 0.0000	 0.0000	 1.00000	  80.7227	   1.0889	   0.4653	   0.0245	   0.5991	   0.2251	  79.4087	8.919e+02	1.271e-01	   7.463	 20856.473
54400	54400	 5.4584	 1.9826	   1.5723	        1.4676	          0.1046	   1.5723	        1.4676	1000000.0000	8.982e-02	1.366e+02	1.521e+03	1.385e+03	 1.0000	 0.0000	 0.0000	 0.0000	 1.00000	  89.0251	   1.0898	   0.4665	   0.0245	   0.5989	   0.2251	  87.7102	8.836e+02	1.271e-01	   5.657	 21178.550
55200	55200	 5.6421	 1.9834	   1.5726	        1.4676	          0.1049	   1.5726	        1.4676	1000000.0000	5.937e-02	9.031e+01	1.521e+03	1.431e+03	 1.0000	 0.0000	 0.0000	 0.0000	 1.00000	  59.2877	   1.0866	   0.4630	   0.0245	   0.5992	   0.2251	  57.9760	9.133e+02	1.271e-01	   5.049	 21496.292
56000	56000	 5.9989	 1.9831	   1.5728	        1.4676	          0.1052	   1.5728	        1.4676	1000000.0000	2.389e-04	3.634e-01	1.521e+03	1.521e+03	 1.0000	 0.0000	 0.0000	 0.0000	 1.00000	   1.5416	   1.0833	   0.4597	   0.0245	   0.5991	   0.2250	   0.2333	9.198e+02	1.271e-01	   5.078	 21800.289
56800	56800	 6.1124	 1.9837	   1.5730	        1.4676	          0.1054	   1.5730	        1.4676	1000000.0000	1.859e-02	2.828e+01	1.521e+03	1.550e+03	 1.0000	 0.0000	 0.0000	 0.0000	 1.00000	  19.4626	   1.0832	   0.4594	   0.0245	   0.5994	   0.2250	  18.1544	9.893e+02	1.271e-01	   6.190	 22119.820
57600	57600	 6.3104	 1.9841	   1.5733	        1.4676	          0.1057	   1.5733	        1.4676	1000000.0000	5.140e-02	7.820e+01	1.521e+03	1.599e+03	 1.0000	 0.0000	 0.0000	 0.0000	 1.00000	  51.5090	   1.0838	   0.4598	   0.0245	   0.5995	   0.2250	  50.2001	1.021e+03	1.271e-01	   6.039	 22443.393
58400	58400	 5.5826	 1.9826	   1.5724	        1.4676	          0.1048	   1.5724	        1.4676	1000000.0000	6.924e-02	1.053e+02	1.521e+03	1.416e+03	 1.0000	 0.0000	 0.0000	 0.0000	 1.00000	  68.9251	   1.0874	   0.4641	   0.0245	   0.5988	   0.2250	  67.6126	9.037e+02	1.271e-01	   4.783	 22759.318
59200	59200	 5.9682	 1.9826	   1.5728	        1.4676	          0.1051	   1.5728	        1.4676	1000000.0000	5.323e-03	8.097e+00	1.521e+03	1.513e+03	 1.0000	 0.0000	 0.0000	 0.0000	 1.00000	   6.5064	   1.0833	   0.4600	   0.0245	   0.5988	   0.2250	   5.1981	9.659e+02	1.271e-01	   6.183	 23099.377
60000	60000	 5.5513	 1.9821	   1.5723	        1.4676	          0.1047	   1.5723	        1.4676	1000000.0000	7.442e-02	1.132e+02	1.521e+03	1.408e+03	 1.0000	 0.0000	 0.0000	 0.0000	 1.00000	  73.9923	   1.0879	   0.4648	   0.0245	   0.5986	   0.2250	  72.6794	8.986e+02	1.271e-01	   5.081	 23414.042
60800	60800	 6.1780	 1.9818	   1.5729	        1.4676	          0.1052	   1.5729	        1.4676	1000000.0000	2.946e-02	4.482e+01	1.521e+03	1.566e+03	 1.0000	 0.0000	 0.0000	 0.0000	 1.00000	  30.0774	   1.0828	   0.4599	   0.0245	   0.5985	   0.2250	  28.7695	1.000e+03	1.271e-01	   6.043	 23696.909
61600	61600	 5.8541	 1.9825	   1.5726	        1.4676	          0.1050	   1.5726	        1.4676	1000000.0000	2.423e-02	3.686e+01	1.521e+03	1.484e+03	 1.0000	 0.0000	 0.0000	 0.0000	 1.00000	  24.9733	   1.0840	   0.4607	   0.0245	   0.5988	   0.2250	  23.6642	9.476e+02	1.271e-01	   5.901	 23978.317
62400	62400	 5.8087	 1.9831	   1.5727	        1.4676	          0.1050	   1.5727	        1.4676	1000000.0000	3.175e-02	4.830e+01	1.521e+03	1.473e+03	 1.0000	 0.0000	 0.0000	 0.0000	 1.00000	  32.3121	   1.0845	   0.4610	   0.0245	   0.5991	   0.2250	  31.0026	9.403e+02	1.271e-01	   5.610	 24278.628
63200	63200	 5.9650	 1.9828	   1.5728	        1.4676	          0.1051	   1.5728	        1.4676	1000000.0000	5.850e-03	8.899e+00	1.521e+03	1.512e+03	 1.0000	 0.0000	 0.0000	 0.0000	 1.00000	   7.0210	   1.0833	   0.4599	   0.0245	   0.5989	   0.2250	   5.7126	9.654e+02	1.271e-01	   7.003	 24584.248
64000	64000	 6.4215	 1.9829	   1.5733	        1.4676	          0.1056	   1.5733	        1.4676	1000000.0000	6.982e-02	1.062e+02	1.521e+03	1.627e+03	 1.0000	 0.0000	 0.0000	 0.0000	 1.00000	  69.4883	   1.0843	   0.4609	   0.0245	   0.5990	   0.2250	  68.1790	1.039e+03	1.271e-01	   4.717	 24880.501
64800	64800	 5.7560	 1.9829	   1.5726	        1.4676	          0.1050	   1.5726	        1.4676	1000000.0000	4.049e-02	6.159e+01	1.521e+03	1.460e+03	 1.0000	 0.0000	 0.0000	 0.0000	 1.00000	  40.8493	   1.0850	   0.4616	   0.0245	   0.5990	   0.2250	  39.5393	9.317e+02	1.271e-01	   5.202	 25162.632
65600	65600	 5.4523	 1.9820	   1.5722	        1.4676	          0.1046	   1.5722	        1.4676	1000000.0000	9.082e-02	1.382e+02	1.521e+03	1.383e+03	 1.0000	 0.0000	 0.0000	 0.0000	 1.00000	  90.0061	   1.0898	   0.4668	   0.0245	   0.5986	   0.2250	  88.6913	8.826e+02	1.271e-01	   5.122	 25456.008
66400	66400	 6.3702	 1.9834	   1.5733	        1.4676	          0.1056	   1.5733	        1.4676	1000000.0000	6.131e-02	9.327e+01	1.521e+03	1.615e+03	 1.0000	 0.0000	 0.0000	 0.0000	 1.00000	  61.1836	   1.0840	   0.4603	   0.0245	   0.5992	   0.2250	  59.8745	1.031e+03	1.271e-01	   6.467	 25768.153
67200	67200	 5.9668	 1.9825	   1.5727	        1.4676	          0.1051	   1.5727	        1.4676	1000000.0000	5.549e-03	8.441e+00	1.521e+03	1.513e+03	 1.0000	 0.0000	 0.0000	 0.0000	 1.00000	   6.7270	   1.0833	   0.4600	   0.0245	   0.5988	   0.2250	   5.4188	9.657e+02	1.271e-01	   4.371	 26055.728
68000	68000	 5.5793	 1.9816	   1.5723	        1.4676	          0.1046	   1.5723	        1.4676	1000000.0000	6.978e-02	1.061e+02	1.521e+03	1.415e+03	 1.0000	 0.0000	 0.0000	 0.0000	 1.00000	  69.4541	   1.0873	   0.4644	   0.0245	   0.5984	   0.2250	  68.1419	9.032e+02	1.271e-01	   5.386	 26343.330
68800	68800	 6.5562	 1.9827	   1.5734	        1.4676	          0.1057	   1.5734	        1.4676	1000000.0000	9.214e-02	1.402e+02	1.521e+03	1.661e+03	 1.0000	 0.0000	 0.0000	 0.0000	 1.00000	  91.2910	   1.0857	   0.4623	   0.0245	   0.5989	   0.2250	  89.9803	1.061e+03	1.271e-01	   4.346	 26638.934
69600	69600	 5.8521	 1.9819	   1.5726	        1.4676	          0.1049	   1.5726	        1.4676	1000000.0000	2.456e-02	3.736e+01	1.521e+03	1.484e+03	 1.0000	 0.0000	 0.0000	 0.0000	 1.00000	  25.2923	   1.0839	   0.4609	   0.0245	   0.5985	   0.2250	  23.9835	9.473e+02	1.271e-01	   7.768	 26955.289
70400	70400	 5.4530	 1.9817	   1.5722	        1.4676	          0.1045	   1.5722	        1.4676	1000000.0000	9.071e-02	1.380e+02	1.521e+03	1.383e+03	 1.0000	 0.0000	 0.0000	 0.0000	 1.00000	  89.8999	   1.0897	   0.4668	   0.0245	   0.5985	   0.2250	  88.5852	8.827e+02	1.271e-01	   5.834	 27267.925
71200	71200	 5.6589	 1.9814	   1.5723	        1.4676	          0.1047	   1.5723	        1.4676	1000000.0000	5.658e-02	8.607e+01	1.521e+03	1.435e+03	 1.0000	 0.0000	 0.0000	 0.0000	 1.00000	  56.5627	   1.0860	   0.4632	   0.0245	   0.5983	   0.2250	  55.2518	9.160e+02	1.271e-01	   5.417	 27552.604
72000	72000	 6.3088	 1.9821	   1.5730	        1.4676	          0.1054	   1.5730	        1.4676	1000000.0000	5.114e-02	7.780e+01	1.521e+03	1.599e+03	 1.0000	 0.0000	 0.0000	 0.0000	 1.00000	  51.2518	   1.0834	   0.4603	   0.0245	   0.5987	   0.2250	  49.9435	1.021e+03	1.271e-01	   5.802	 27845.838
72800	72800	 5.6814	 1.9820	   1.5724	        1.4676	          0.1048	   1.5724	        1.4676	1000000.0000	5.286e-02	8.041e+01	1.521e+03	1.441e+03	 1.0000	 0.0000	 0.0000	 0.0000	 1.00000	  52.9278	   1.0858	   0.4627	   0.0245	   0.5986	   0.2250	  51.6171	9.197e+02	1.271e-01	   5.878	 28163.543
73600	73600	 6.5600	 1.9815	   1.5732	        1.4676	          0.1056	   1.5732	        1.4676	1000000.0000	9.276e-02	1.411e+02	1.521e+03	1.662e+03	 1.0000	 0.0000	 0.0000	 0.0000	 1.00000	  91.9011	   1.0855	   0.4627	   0.0245	   0.5984	   0.2250	  90.5906	1.062e+03	1.271e-01	   6.428	 28457.976
74400	74400	 5.5543	 1.9815	   1.5722	        1.4676	          0.1046	   1.5722	        1.4676	1000000.0000	7.393e-02	1.125e+02	1.521e+03	1.409e+03	 1.0000	 0.0000	 0.0000	 0.0000	 1.00000	  73.5069	   1.0877	   0.4648	   0.0245	   0.5984	   0.2250	  72.1943	8.991e+02	1.271e-01	   6.101	 28759.027
75200	75200	 5.6362	 1.9807	   1.5722	        1.4676	          0.1046	   1.5722	        1.4676	1000000.0000	6.035e-02	9.181e+01	1.521e+03	1.429e+03	 1.0000	 0.0000	 0.0000	 0.0000	 1.00000	  60.2478	   1.0862	   0.4637	   0.0245	   0.5980	   0.2250	  58.9367	9.124e+02	1.271e-01	   4.570	 29056.811
76000	76000	 5.5082	 1.9805	   1.5721	        1.4676	          0.1044	   1.5721	        1.4676	1000000.0000	8.156e-02	1.241e+02	1.521e+03	1.397e+03	 1.0000	 0.0000	 0.0000	 0.0000	 1.00000	  80.9633	   1.0883	   0.4659	   0.0245	   0.5979	   0.2249	  79.6500	8.917e+02	1.271e-01	   4.610	 29342.173
76800	76800	 5.5851	 1.9797	   1.5720	        1.4676	          0.1044	   1.5720	        1.4676	1000000.0000	6.882e-02	1.047e+02	1.521e+03	1.417e+03	 1.0000	 0.0000	 0.0000	 0.0000	 1.00000	  68.5139	   1.0868	   0.4647	   0.0245	   0.5976	   0.2249	  67.2022	9.041e+02	1.271e-01	   5.351	 29634.088
77600	77600	 6.0588	 1.9808	   1.5726	        1.4676	          0.1050	   1.5726	        1.4676	1000000.0000	9.690e-03	1.474e+01	1.521e+03	1.536e+03	 1.0000	 0.0000	 0.0000	 0.0000	 1.00000	  10.7704	   1.0826	   0.4601	   0.0245	   0.5981	   0.2249	   9.4629	9.806e+02	1.271e-01	   4.784	 29901.040
78400	78400	 6.0022	 1.9811	   1.5726	        1.4676	          0.1050	   1.5726	        1.4676	1000000.0000	3.282e-04	4.993e-01	1.521e+03	1.522e+03	 1.0000	 0.0000	 0.0000	 0.0000	 1.00000	   1.6283	   1.0828	   0.4602	   0.0245	   0.5982	   0.2249	   0.3205	9.470e+02	1.271e-01	   5.980	 30200.132
79200	79200	 6.3066	 1.9814	   1.5729	        1.4676	          0.1053	   1.5729	        1.4676	1000000.0000	5.078e-02	7.724e+01	1.521e+03	1.599e+03	 1.0000	 0.0000	 0.0000	 0.0000	 1.00000	  50.8931	   1.0832	   0.4604	   0.0245	   0.5983	   0.2249	  49.5850	1.021e+03	1.271e-01	   5.593	 30483.408
80000	80000	 6.1448	 1.9814	   1.5728	        1.4676	          0.1051	   1.5728	        1.4676	1000000.0000	2.395e-02	3.644e+01	1.521e+03	1.558e+03	 1.0000	 0.0000	 0.0000	 0.0000	 1.00000	  24.6969	   1.0827	   0.4599	   0.0245	   0.5983	   0.2249	  23.3893	9.946e+02	1.271e-01	   5.402	 30751.064
80800	80800	 6.2287	 1.9814	   1.5729	        1.4676	          0.1052	   1.5729	        1.4676	1000000.0000	3.785e-02	5.758e+01	1.521e+03	1.579e+03	 1.0000	 0.0000	 0.0000	 0.0000	 1.00000	  38.2706	   1.0829	   0.4601	   0.0245	   0.5983	   0.2249	  36.9628	1.008e+03	1.271e-01	   6.994	 31054.655
81600	81600	 6.1166	 1.9811	   1.5727	        1.4676	          0.1051	   1.5727	        1.4676	1000000.0000	1.927e-02	2.932e+01	1.521e+03	1.551e+03	 1.0000	 0.0000	 0.0000	 0.0000	 1.00000	  20.1269	   1.0826	   0.4600	   0.0245	   0.5982	   0.2249	  18.8193	9.900e+02	1.271e-01	   8.082	 31366.981
82400	82400	 6.3903	 1.9809	   1.5730	        1.4676	          0.1053	   1.5730	        1.4676	1000000.0000	6.464e-02	9.834e+01	1.521e+03	1.620e+03	 1.0000	 0.0000	 0.0000	 0.0000	 1.00000	  64.4359	   1.0837	   0.4611	   0.0245	   0.5981	   0.2249	  63.1273	1.034e+03	1.271e-01	   5.615	 31666.433
83200	83200	 5.7348	 1.9815	   1.5724	        1.4676	          0.1047	   1.5724	        1.4676	1000000.0000	4.401e-02	6.696e+01	1.521e+03	1.454e+03	 1.0000	 0.0000	 0.0000	 0.0000	 1.00000	  44.2911	   1.0850	   0.4621	   0.0245	   0.5984	   0.2249	  42.9812	9.283e+02	1.271e-01	   4.769	 31963.264
84000	84000	 5.4536	 1.9798	   1.5719	        1.4676	          0.1043	   1.5719	        1.4676	1000000.0000	9.061e-02	1.378e+02	1.521e+03	1.383e+03	 1.0000	 0.0000	 0.0000	 0.0000	 1.00000	  89.7987	   1.0893	   0.4672	   0.0245	   0.5976	   0.2249	  88.4844	8.828e+02	1.271e-01	   4.708	 32254.139
84800	84800	 5.9992	 1.9800	   1.5725	        1.4676	          0.1048	   1.5725	        1.4676	1000000.0000	2.043e-04	3.108e-01	1.521e+03	1.521e+03	 1.0000	 0.0000	 0.0000	 0.0000	 1.00000	   1.5070	   1.0826	   0.4604	   0.0245	   0.5977	   0.2249	   0.1995	9.005e+02	1.271e-01	   5.978	 32543.500
85600	85600	 5.6433	 1.9797	   1.5721	        1.4676	          0.1044	   1.5721	        1.4676	1000000.0000	5.917e-02	9.002e+01	1.521e+03	1.431e+03	 1.0000	 0.0000	 0.0000	 0.0000	 1.00000	  59.0951	   1.0858	   0.4638	   0.0245	   0.5976	   0.2249	  57.7843	9.135e+02	1.271e-01	   7.603	 32837.731
86400	86400	 6.3096	 1.9809	   1.5729	        1.4676	          0.1052	   1.5729	        1.4676	1000000.0000	5.126e-02	7.798e+01	1.521e+03	1.599e+03	 1.0000	 0.0000	 0.0000	 0.0000	 1.00000	  51.3692	   1.0831	   0.4606	   0.0245	   0.5981	   0.2249	  50.0612	1.021e+03	1.271e-01	   6.696	 33130.193
87200	87200	 5.5848	 1.9804	   1.5721	        1.4676	          0.1045	   1.5721	        1.4676	1000000.0000	6.887e-02	1.048e+02	1.521e+03	1.417e+03	 1.0000	 0.0000	 0.0000	 0.0000	 1.00000	  68.5702	   1.0869	   0.4645	   0.0245	   0.5979	   0.2249	  67.2583	9.040e+02	1.271e-01	   5.250	 33411.991
88000	88000	 6.0776	 1.9802	   1.5726	        1.4676	          0.1049	   1.5726	        1.4676	1000000.0000	1.281e-02	1.949e+01	1.521e+03	1.541e+03	 1.0000	 0.0000	 0.0000	 0.0000	 1.00000	  13.8210	   1.0825	   0.4602	   0.0245	   0.5978	   0.2249	  12.5136	9.837e+02	1.271e-01	   6.108	 33709.367
88800	88800	 6.4197	 1.9805	   1.5729	        1.4676	          0.1053	   1.5729	        1.4676	1000000.0000	6.950e-02	1.057e+02	1.521e+03	1.627e+03	 1.0000	 0.0000	 0.0000	 0.0000	 1.00000	  69.1826	   1.0838	   0.4614	   0.0245	   0.5979	   0.2249	  67.8739	1.039e+03	1.271e-01	   4.127	 33988.468
89600	89600	 5.7442	 1.9801	   1.5722	        1.4676	          0.1046	   1.5722	        1.4676	1000000.0000	4.246e-02	6.459e+01	1.521e+03	1.457e+03	 1.0000	 0.0000	 0.0000	 0.0000	 1.00000	  42.7711	   1.0846	   0.4624	   0.0245	   0.5977	   0.2249	  41.4616	9.298e+02	1.271e-01	   8.124	 34310.167
90400	90400	 6.5318	 1.9795	   1.5729	        1.4676	          0.1053	   1.5729	        1.4676	1000000.0000	8.808e-02	1.340e+02	1.521e+03	1.655e+03	 1.0000	 0.0000	 0.0000	 0.0000	 1.00000	  87.3248	   1.0848	   0.4628	   0.0245	   0.5975	   0.2249	  86.0152	1.057e+03	1.271e-01	   6.278	 34602.766
91200	91200	 6.2390	 1.9796	   1.5727	        1.4676	          0.1050	   1.5727	        1.4676	1000000.0000	3.955e-02	6.017e+01	1.521e+03	1.581e+03	 1.0000	 0.0000	 0.0000	 0.0000	 1.00000	  39.9341	   1.0825	   0.4605	   0.0245	   0.5976	   0.2249	  38.6267	1.010e+03	1.271e-01	   5.588	 34921.986
92000	92000	 5.4539	 1.9798	   1.5719	        1.4676	          0.1043	   1.5719	        1.4676	1000000.0000	9.057e-02	1.378e+02	1.521e+03	1.383e+03	 1.0000	 0.0000	 0.0000	 0.0000	 1.00000	  89.7656	   1.0893	   0.4672	   0.0245	   0.5976	   0.2249	  88.4514	8.829e+02	1.271e-01	   4.958	 35242.511
92800	92800	 6.3570	 1.9800	   1.5728	        1.4676	          0.1052	   1.5728	        1.4676	1000000.0000	5.912e-02	8.994e+01	1.521e+03	1.611e+03	 1.0000	 0.0000	 0.0000	 0.0000	 1.00000	  59.0427	   1.0833	   0.4610	   0.0245	   0.5977	   0.2249	  57.7346	1.029e+03	1.271e-01	   5.463	 35513.347
93600	93600	 6.3764	 1.9809	   1.5730	        1.4676	          0.1053	   1.5730	        1.4676	1000000.0000	6.234e-02	9.484e+01	1.521e+03	1.616e+03	 1.0000	 0.0000	 0.0000	 0.0000	 1.00000	  62.1892	   1.0836	   0.4610	   0.0245	   0.5981	   0.2249	  60.8808	1.032e+03	1.271e-01	   4.191	 35773.376
94400	94400	 5.7895	 1.9796	   1.5722	        1.4676	          0.1046	   1.5722	        1.4676	1000000.0000	3.494e-02	5.316e+01	1.521e+03	1.468e+03	 1.0000	 0.0000	 0.0000	 0.0000	 1.00000	  35.4319	   1.0840	   0.4620	   0.0245	   0.5975	   0.2249	  34.1231	9.371e+02	1.271e-01	   4.554	 36085.689
95200	95200	 5.9882	 1.9799	   1.5724	        1.4676	          0.1048	   1.5724	        1.4676	1000000.0000	2.014e-03	3.063e+00	1.521e+03	1.518e+03	 1.0000	 0.0000	 0.0000	 0.0000	 1.00000	   3.2740	   1.0826	   0.4605	   0.0245	   0.5977	   0.2249	   1.9665	9.687e+02	1.271e-01	   4.650	 36423.545
96000	96000	 5.9630	 1.9790	   1.5723	        1.4676	          0.1047	   1.5723	        1.4676	1000000.0000	6.187e-03	9.413e+00	1.521e+03	1.512e+03	 1.0000	 0.0000	 0.0000	 0.0000	 1.00000	   7.3498	   1.0826	   0.4608	   0.0245	   0.5973	   0.2248	   6.0424	9.651e+02	1.271e-01	   4.726	 36715.678
96800	96800	 5.9216	 1.9797	   1.5724	        1.4676	          0.1047	   1.5724	        1.4676	1000000.0000	1.305e-02	1.985e+01	1.521e+03	1.501e+03	 1.0000	 0.0000	 0.0000	 0.0000	 1.00000	  14.0473	   1.0829	   0.4609	   0.0245	   0.5976	   0.2248	  12.7396	9.585e+02	1.271e-01	   4.306	 36972.849
97600	97600	 5.5437	 1.9789	   1.5719	        1.4676	          0.1043	   1.5719	        1.4676	1000000.0000	7.569e-02	1.151e+02	1.521e+03	1.406e+03	 1.0000	 0.0000	 0.0000	 0.0000	 1.00000	  75.2313	   1.0873	   0.4656	   0.0245	   0.5972	   0.2248	  73.9192	8.974e+02	1.271e-01	   5.125	 37240.315
98400	98400	 5.8640	 1.9792	   1.5722	        1.4676	          0.1046	   1.5722	        1.4676	1000000.0000	2.259e-02	3.437e+01	1.521e+03	1.487e+03	 1.0000	 0.0000	 0.0000	 0.0000	 1.00000	  23.3725	   1.0832	   0.4614	   0.0245	   0.5974	   0.2248	  22.0645	9.492e+02	1.271e-01	   7.899	 37610.428
99200	99200	 6.4535	 1.9798	   1.5729	        1.4676	          0.1052	   1.5729	        1.4676	1000000.0000	7.512e-02	1.143e+02	1.521e+03	1.636e+03	 1.0000	 0.0000	 0.0000	 0.0000	 1.00000	  74.6655	   1.0840	   0.4619	   0.0245	   0.5976	   0.2248	  73.3567	1.045e+03	1.271e-01	   4.683	 37896.935
100000	100000	 6.0850	 1.9791	   1.5724	        1.4676	          0.1048	   1.5724	        1.4676	1000000.0000	1.403e-02	2.134e+01	1.521e+03	1.543e+03	 1.0000	 0.0000	 0.0000	 0.0000	 1.00000	  15.0063	   1.0822	   0.4605	   0.0245	   0.5973	   0.2248	  13.6992	9.849e+02	1.271e-01	   6.415	 38122.570
100800	100800	 5.6846	 1.9785	   1.5720	        1.4676	          0.1043	   1.5720	        1.4676	1000000.0000	5.233e-02	7.960e+01	1.521e+03	1.442e+03	 1.0000	 0.0000	 0.0000	 0.0000	 1.00000	  52.4087	   1.0850	   0.4635	   0.0245	   0.5970	   0.2248	  51.0989	9.202e+02	1.271e-01	   5.102	 38376.837
101600	101600	 5.5824	 1.9787	   1.5719	        1.4676	          0.1043	   1.5719	        1.4676	1000000.0000	6.928e-02	1.054e+02	1.521e+03	1.416e+03	 1.0000	 0.0000	 0.0000	 0.0000	 1.00000	  68.9634	   1.0866	   0.4650	   0.0245	   0.5971	   0.2248	  67.6520	9.037e+02	1.271e-01	   4.758	 38647.006
102400	102400	 6.1355	 1.9789	   1.5725	        1.4676	          0.1048	   1.5725	        1.4676	1000000.0000	2.240e-02	3.407e+01	1.521e+03	1.555e+03	 1.0000	 0.0000	 0.0000	 0.0000	 1.00000	  23.1797	   1.0822	   0.4605	   0.0245	   0.5972	   0.2248	  21.8727	9.931e+02	1.271e-01	   4.288	 38871.658
103200	103200	 6.2298	 1.9784	   1.5725	        1.4676	          0.1048	   1.5725	        1.4676	1000000.0000	3.803e-02	5.785e+01	1.521e+03	1.579e+03	 1.0000	 0.0000	 0.0000	 0.0000	 1.00000	  38.4435	   1.0823	   0.4608	   0.0245	   0.5970	   0.2248	  37.1364	1.008e+03	1.271e-01	   4.558	 39155.636
104000	104000	 6.2905	 1.9783	   1.5725	        1.4676	          0.1049	   1.5725	        1.4676	1000000.0000	4.810e-02	7.317e+01	1.521e+03	1.594e+03	 1.0000	 0.0000	 0.0000	 0.0000	 1.00000	  48.2753	   1.0825	   0.4610	   0.0245	   0.5970	   0.2248	  46.9680	1.018e+03	1.271e-01	   5.212	 39408.060
104800	104800	 6.3543	 1.9780	   1.5726	        1.4676	          0.1049	   1.5726	        1.4676	1000000.0000	5.866e-02	8.923e+01	1.521e+03	1.610e+03	 1.0000	 0.0000	 0.0000	 0.0000	 1.00000	  58.5903	   1.0828	   0.4615	   0.0245	   0.5968	   0.2248	  57.2826	1.029e+03	1.271e-01	   4.751	 39679.316
105600	105600	 6.0547	 1.9776	   1.5722	        1.4676	          0.1046	   1.5722	        1.4676	1000000.0000	9.004e-03	1.370e+01	1.521e+03	1.535e+03	 1.0000	 0.0000	 0.0000	 0.0000	 1.00000	  10.1002	   1.0820	   0.4608	   0.0245	   0.5967	   0.2248	   8.7934	9.800e+02	1.271e-01	   5.871	 39950.947
106400	106400	 6.5072	 1.9783	   1.5728	        1.4676	          0.1051	   1.5728	        1.4676	1000000.0000	8.400e-02	1.278e+02	1.521e+03	1.649e+03	 1.0000	 0.0000	 0.0000	 0.0000	 1.00000	  83.3406	   1.0842	   0.4628	   0.0245	   0.5970	   0.2248	  82.0315	1.053e+03	1.271e-01	   5.035	 40259.283
107200	107200	 5.9544	 1.9782	   1.5722	        1.4676	          0.1045	   1.5722	        1.4676	1000000.0000	7.619e-03	1.159e+01	1.521e+03	1.510e+03	 1.0000	 0.0000	 0.0000	 0.0000	 1.00000	   8.7472	   1.0824	   0.4611	   0.0245	   0.5969	   0.2248	   7.4400	9.638e+02	1.271e-01	   4.367	 40549.339
108000	108000	 5.5843	 1.9774	   1.5717	        1.4676	          0.1041	   1.5717	        1.4676	1000000.0000	6.897e-02	1.049e+02	1.521e+03	1.416e+03	 1.0000	 0.0000	 0.0000	 0.0000	 1.00000	  68.6599	   1.0863	   0.4653	   0.0245	   0.5966	   0.2248	  67.3488	9.040e+02	1.271e-01	   5.947	 40858.384
108800	108800	 6.5569	 1.9780	   1.5728	        1.4676	          0.1051	   1.5728	        1.4676	1000000.0000	9.224e-02	1.403e+02	1.521e+03	1.662e+03	 1.0000	 0.0000	 0.0000	 0.0000	 1.00000	  91.3879	   1.0848	   0.4635	   0.0245	   0.5968	   0.2248	  90.0783	1.061e+03	1.271e-01	   9.870	 41100.586
109600	109600	 6.3676	 1.9779	   1.5726	        1.4676	          0.1049	   1.5726	        1.4676	1000000.0000	6.086e-02	9.259e+01	1.521e+03	1.614e+03	 1.0000	 0.0000	 0.0000	 0.0000	 1.00000	  60.7451	   1.0829	   0.4616	   0.0245	   0.5968	   0.2248	  59.4374	1.031e+03	1.271e-01	   4.413	 41374.154
110400	110400	 6.1139	 1.9769	   1.5722	        1.4676	          0.1045	   1.5722	        1.4676	1000000.0000	1.881e-02	2.862e+01	1.521e+03	1.550e+03	 1.0000	 0.0000	 0.0000	 0.0000	 1.00000	  19.6795	   1.0818	   0.4609	   0.0245	   0.5963	   0.2248	  18.3730	9.896e+02	1.271e-01	   4.373	 41645.997
111200	111200	 5.7693	 1.9780	   1.5720	        1.4676	          0.1043	   1.5720	        1.4676	1000000.0000	3.829e-02	5.825e+01	1.521e+03	1.463e+03	 1.0000	 0.0000	 0.0000	 0.0000	 1.00000	  38.7024	   1.0839	   0.4625	   0.0245	   0.5968	   0.2248	  37.3938	9.339e+02	1.271e-01	   4.319	 41904.639
112000	112000	 5.9009	 1.9766	   1.5719	        1.4676	          0.1043	   1.5719	        1.4676	1000000.0000	1.649e-02	2.509e+01	1.521e+03	1.496e+03	 1.0000	 0.0000	 0.0000	 0.0000	 1.00000	  17.4117	   1.0824	   0.4617	   0.0245	   0.5962	   0.2248	  16.1045	9.551e+02	1.271e-01	   4.300	 42187.777
112800	112800	 5.6316	 1.9769	   1.5717	        1.4676	          0.1041	   1.5717	        1.4676	1000000.0000	6.112e-02	9.298e+01	1.521e+03	1.428e+03	 1.0000	 0.0000	 0.0000	 0.0000	 1.00000	  60.9998	   1.0854	   0.4646	   0.0245	   0.5963	   0.2248	  59.6896	9.116e+02	1.271e-01	   6.966	 42426.713
113600	113600	 5.4989	 1.9763	   1.5715	        1.4676	          0.1039	   1.5715	        1.4676	1000000.0000	8.312e-02	1.264e+02	1.521e+03	1.395e+03	 1.0000	 0.0000	 0.0000	 0.0000	 1.00000	  82.4833	   1.0876	   0.4671	   0.0245	   0.5961	   0.2248	  81.1709	8.902e+02	1.271e-01	  11.776	 42752.659
114400	114400	 6.0012	 1.9763	   1.5720	        1.4676	          0.1043	   1.5720	        1.4676	1000000.0000	1.588e-04	2.416e-01	1.521e+03	1.521e+03	 1.0000	 0.0000	 0.0000	 0.0000	 1.00000	   1.4617	   1.0818	   0.4613	   0.0245	   0.5961	   0.2248	   0.1551	8.378e+02	1.271e-01	   4.483	 43009.252
115200	115200	 5.6444	 1.9760	   1.5716	        1.4676	          0.1040	   1.5716	        1.4676	1000000.0000	5.900e-02	8.976e+01	1.521e+03	1.432e+03	 1.0000	 0.0000	 0.0000	 0.0000	 1.00000	  58.9307	   1.0850	   0.4646	   0.0245	   0.5959	   0.2248	  57.6209	9.137e+02	1.271e-01	   3.831	 43282.017
116000	116000	 6.5683	 1.9766	   1.5726	        1.4676	          0.1050	   1.5726	        1.4676	1000000.0000	9.412e-02	1.432e+02	1.521e+03	1.664e+03	 1.0000	 0.0000	 0.0000	 0.0000	 1.00000	  93.2278	   1.0846	   0.4639	   0.0245	   0.5962	   0.2247	  91.9184	1.063e+03	1.271e-01	   4.261	 43520.701
116800	116800	 5.7194	 1.9768	   1.5718	        1.4676	          0.1041	   1.5718	        1.4676	1000000.0000	4.656e-02	7.083e+01	1.521e+03	1.450e+03	 1.0000	 0.0000	 0.0000	 0.0000	 1.00000	  46.7799	   1.0842	   0.4634	   0.0245	   0.5963	   0.2247	  45.4710	9.258e+02	1.271e-01	   4.420	 43766.683
117600	117600	 5.6338	 1.9772	   1.5718	        1.4676	          0.1041	   1.5718	        1.4676	1000000.0000	6.076e-02	9.243e+01	1.521e+03	1.429e+03	 1.0000	 0.0000	 0.0000	 0.0000	 1.00000	  60.6478	   1.0855	   0.4645	   0.0245	   0.5965	   0.2247	  59.3376	9.120e+02	1.271e-01	   5.548	 44022.454
118400	118400	 6.0045	 1.9771	   1.5721	        1.4676	          0.1045	   1.5721	        1.4676	1000000.0000	6.905e-04	1.050e+00	1.521e+03	1.522e+03	 1.0000	 0.0000	 0.0000	 0.0000	 1.00000	   1.9810	   1.0820	   0.4611	   0.0245	   0.5964	   0.2247	   0.6743	9.666e+02	1.271e-01	   5.159	 44324.074
119200	119200	 6.1161	 1.9764	   1.5721	        1.4676	          0.1045	   1.5721	        1.4676	1000000.0000	1.919e-02	2.919e+01	1.521e+03	1.550e+03	 1.0000	 0.0000	 0.0000	 0.0000	 1.00000	  20.0430	   1.0817	   0.4610	   0.0245	   0.5961	   0.2247	  18.7366	9.899e+02	1.271e-01	   6.027	 44575.205
120000	120000	 6.2322	 1.9763	   1.5722	        1.4676	          0.1046	   1.5722	        1.4676	1000000.0000	3.842e-02	5.845e+01	1.521e+03	1.580e+03	 1.0000	 0.0000	 0.0000	 0.0000	 1.00000	  38.8279	   1.0818	   0.4613	   0.0245	   0.5961	   0.2247	  37.5213	1.009e+03	1.271e-01	   4.796	 44874.785
120800	120800	 5.7036	 1.9762	   1.5717	        1.4676	          0.1040	   1.5717	        1.4676	1000000.0000	4.919e-02	7.483e+01	1.521e+03	1.446e+03	 1.0000	 0.0000	 0.0000	 0.0000	 1.00000	  49.3471	   1.0843	   0.4637	   0.0245	   0.5960	   0.2247	  48.0381	9.233e+02	1.271e-01	   5.037	 45166.732
121600	121600	 6.4234	 1.9762	   1.5724	        1.4676	          0.1048	   1.5724	        1.4676	1000000.0000	7.012e-02	1.067e+02	1.521e+03	1.628e+03	 1.0000	 0.0000	 0.0000	 0.0000	 1.00000	  69.7825	   1.0830	   0.4625	   0.0245	   0.5960	   0.2247	  68.4748	1.040e+03	1.271e-01	   4.465	 45474.429
122400	122400	 5.5397	 1.9755	   1.5715	        1.4676	          0.1038	   1.5715	        1.4676	1000000.0000	7.636e-02	1.162e+02	1.521e+03	1.405e+03	 1.0000	 0.0000	 0.0000	 0.0000	 1.00000	  75.8820	   1.0867	   0.4665	   0.0245	   0.5957	   0.2247	  74.5706	8.968e+02	1.271e-01	   3.471	 45810.816
123200	123200	 6.2378	 1.9764	   1.5722	        1.4676	          0.1046	   1.5722	        1.4676	1000000.0000	3.936e-02	5.987e+01	1.521e+03	1.581e+03	 1.0000	 0.0000	 0.0000	 0.0000	 1.00000	  39.7420	   1.0819	   0.4613	   0.0245	   0.5961	   0.2247	  38.4354	1.010e+03	1.271e-01	  10.722	 46198.143
124000	124000	 5.6350	 1.9758	   1.5716	        1.4676	          0.1039	   1.5716	        1.4676	1000000.0000	6.056e-02	9.213e+01	1.521e+03	1.429e+03	 1.0000	 0.0000	 0.0000	 0.0000	 1.00000	  60.4538	   1.0851	   0.4648	   0.0245	   0.5958	   0.2247	  59.1439	9.122e+02	1.271e-01	   4.595	 46511.268
124800	124800	 5.6841	 1.9753	   1.5716	        1.4676	          0.1039	   1.5716	        1.4676	1000000.0000	5.242e-02	7.975e+01	1.521e+03	1.442e+03	 1.0000	 0.0000	 0.0000	 0.0000	 1.00000	  52.5012	   1.0843	   0.4642	   0.0245	   0.5956	   0.2247	  51.1922	9.201e+02	1.271e-01	   5.241	 46811.792
125600	125600	 6.5588	 1.9763	   1.5726	        1.4676	          0.1049	   1.5726	        1.4676	1000000.0000	9.256e-02	1.408e+02	1.521e+03	1.662e+03	 1.0000	 0.0000	 0.0000	 0.0000	 1.00000	  91.7011	   1.0844	   0.4639	   0.0245	   0.5961	   0.2247	  90.3920	1.062e+03	1.271e-01	   4.521	 47088.755
126400	126400	 6.4197	 1.9758	   1.5724	        1.4676	          0.1047	   1.5724	        1.4676	1000000.0000	6.949e-02	1.057e+02	1.521e+03	1.627e+03	 1.0000	 0.0000	 0.0000	 0.0000	 1.00000	  69.1718	   1.0829	   0.4625	   0.0245	   0.5958	   0.2247	  67.8642	1.039e+03	1.271e-01	   4.194	 47318.339
127200	127200	 5.9990	 1.9754	   1.5719	        1.4676	          0.1042	   1.5719	        1.4676	1000000.0000	2.367e-04	3.601e-01	1.521e+03	1.521e+03	 1.0000	 0.0000	 0.0000	 0.0000	 1.00000	   1.5375	   1.0817	   0.4615	   0.0245	   0.5957	   0.2247	   0.2311	9.182e+02	1.271e-01	   5.187	 47572.573
128000	128000	 6.5625	 1.9756	   1.5725	        1.4676	          0.1048	   1.5725	        1.4676	1000000.0000	9.317e-02	1.417e+02	1.521e+03	1.663e+03	 1.0000	 0.0000	 0.0000	 0.0000	 1.00000	  92.2988	   1.0843	   0.4641	   0.0245	   0.5958	   0.2247	  90.9897	1.062e+03	1.271e-01	   9.968	 47823.063
128800	128800	 5.7965	 1.9753	   1.5717	        1.4676	          0.1040	   1.5717	        1.4676	1000000.0000	3.379e-02	5.141e+01	1.521e+03	1.470e+03	 1.0000	 0.0000	 0.0000	 0.0000	 1.00000	  34.3068	   1.0830	   0.4629	   0.0245	   0.5956	   0.2247	  32.9991	9.383e+02	1.271e-01	   4.224	 48118.923
129600	129600	 6.1130	 1.9757	   1.5720	        1.4676	          0.1044	   1.5720	        1.4676	1000000.0000	1.866e-02	2.839e+01	1.521e+03	1.550e+03	 1.0000	 0.0000	 0.0000	 0.0000	 1.00000	  19.5308	   1.0815	   0.4612	   0.0245	   0.5958	   0.2247	  18.2246	9.894e+02	1.271e-01	   4.420	 48377.975
130400	130400	 5.9570	 1.9765	   1.5720	        1.4676	          0.1043	   1.5720	        1.4676	1000000.0000	7.195e-03	1.095e+01	1.521e+03	1.510e+03	 1.0000	 0.0000	 0.0000	 0.0000	 1.00000	   8.3330	   1.0821	   0.4614	   0.0245	   0.5961	   0.2247	   7.0262	9.642e+02	1.271e-01	   6.600	 48700.060
131200	131200	 6.2526	 1.9756	   1.5722	        1.4676	          0.1045	   1.5722	        1.4676	1000000.0000	4.180e-02	6.358e+01	1.521e+03	1.585e+03	 1.0000	 0.0000	 0.0000	 0.0000	 1.00000	  42.1236	   1.0818	   0.4615	   0.0245	   0.5958	   0.2247	  40.8172	1.012e+03	1.271e-01	   4.739	 48930.903
132000	132000	 5.4554	 1.9756	   1.5714	        1.4676	          0.1037	   1.5714	        1.4676	1000000.0000	9.033e-02	1.374e+02	1.521e+03	1.384e+03	 1.0000	 0.0000	 0.0000	 0.0000	 1.00000	  89.5305	   1.0884	   0.4682	   0.0245	   0.5957	   0.2247	  88.2174	8.831e+02	1.271e-01	   4.717	 49181.298
132800	132800	 5.9564	 1.9764	   1.5720	        1.4676	          0.1043	   1.5720	        1.4676	1000000.0000	7.289e-03	1.109e+01	1.521e+03	1.510e+03	 1.0000	 0.0000	 0.0000	 0.0000	 1.00000	   8.4245	   1.0820	   0.4614	   0.0245	   0.5961	   0.2247	   7.1178	9.641e+02	1.271e-01	   4.642	 49486.913
133600	133600	 6.0590	 1.9764	   1.5721	        1.4676	          0.1044	   1.5721	        1.4676	1000000.0000	9.724e-03	1.479e+01	1.521e+03	1.536e+03	 1.0000	 0.0000	 0.0000	 0.0000	 1.00000	  10.8022	   1.0817	   0.4611	   0.0245	   0.5961	   0.2247	   9.4959	9.807e+02	1.271e-01	   6.409	 49825.367
134400	134400	 5.9692	 1.9752	   1.5718	        1.4676	          0.1042	   1.5718	        1.4676	1000000.0000	5.165e-03	7.858e+00	1.521e+03	1.513e+03	 1.0000	 0.0000	 0.0000	 0.0000	 1.00000	   6.3508	   1.0817	   0.4617	   0.0245	   0.5956	   0.2247	   5.0444	9.661e+02	1.271e-01	   4.767	 50097.257
135200	135200	 5.9565	 1.9756	   1.5719	        1.4676	          0.1042	   1.5719	        1.4676	1000000.0000	7.268e-03	1.106e+01	1.521e+03	1.510e+03	 1.0000	 0.0000	 0.0000	 0.0000	 1.00000	   8.4042	   1.0819	   0.4616	   0.0245	   0.5958	   0.2247	   7.0976	9.641e+02	1.271e-01	   4.826	 50359.092
136000	136000	 6.4377	 1.9753	   1.5723	        1.4676	          0.1047	   1.5723	        1.4676	1000000.0000	7.248e-02	1.103e+02	1.521e+03	1.632e+03	 1.0000	 0.0000	 0.0000	 0.0000	 1.00000	  72.0870	   1.0829	   0.4628	   0.0245	   0.5956	   0.2247	  70.7795	1.042e+03	1.271e-01	   4.513	 50612.307
136800	136800	 5.6844	 1.9748	   1.5715	        1.4676	          0.1039	   1.5715	        1.4676	1000000.0000	5.238e-02	7.968e+01	1.521e+03	1.442e+03	 1.0000	 0.0000	 0.0000	 0.0000	 1.00000	  52.4605	   1.0842	   0.4643	   0.0245	   0.5954	   0.2246	  51.1516	9.201e+02	1.271e-01	   4.863	 50846.494
137600	137600	 5.6009	 1.9750	   1.5715	        1.4676	          0.1038	   1.5715	        1.4676	1000000.0000	6.622e-02	1.007e+02	1.521e+03	1.421e+03	 1.0000	 0.0000	 0.0000	 0.0000	 1.00000	  65.9781	   1.0855	   0.4655	   0.0245	   0.5955	   0.2246	  64.6680	9.066e+02	1.271e-01	   4.875	 51184.282
138400	138400	 6.5033	 1.9749	   1.5723	        1.4676	          0.1047	   1.5723	        1.4676	1000000.0000	8.334e-02	1.268e+02	1.521e+03	1.648e+03	 1.0000	 0.0000	 0.0000	 0.0000	 1.00000	  82.6996	   1.0835	   0.4636	   0.0245	   0.5955	   0.2246	  81.3915	1.053e+03	1.271e-01	   4.659	 51448.111
139200	139200	 6.4900	 1.9745	   1.5723	        1.4676	          0.1046	   1.5723	        1.4676	1000000.0000	8.114e-02	1.234e+02	1.521e+03	1.645e+03	 1.0000	 0.0000	 0.0000	 0.0000	 1.00000	  80.5452	   1.0833	   0.4635	   0.0245	   0.5953	   0.2246	  79.2373	1.051e+03	1.271e-01	   6.449	 51700.965
140000	140000	 6.5659	 1.9744	   1.5723	        1.4676	          0.1047	   1.5723	        1.4676	1000000.0000	9.372e-02	1.426e+02	1.521e+03	1.664e+03	 1.0000	 0.0000	 0.0000	 0.0000	 1.00000	  92.8358	   1.0841	   0.4644	   0.0245	   0.5953	   0.2246	  91.5271	1.063e+03	1.271e-01	   4.355	 52068.402
140800	140800	 6.4621	 1.9749	   1.5723	        1.4676	          0.1046	   1.5723	        1.4676	1000000.0000	7.652e-02	1.164e+02	1.521e+03	1.638e+03	 1.0000	 0.0000	 0.0000	 0.0000	 1.00000	  76.0391	   1.0831	   0.4631	   0.0245	   0.5955	   0.2246	  74.7314	1.046e+03	1.271e-01	   4.274	 52354.325
141600	141600	 5.8450	 1.9742	   1.5716	        1.4676	          0.1039	   1.5716	        1.4676	1000000.0000	2.576e-02	3.919e+01	1.521e+03	1.482e+03	 1.0000	 0.0000	 0.0000	 0.0000	 1.00000	  26.4631	   1.0823	   0.4627	   0.0245	   0.5952	   0.2246	  25.1561	9.461e+02	1.271e-01	   4.432	 52587.645
142400	142400	 6.0056	 1.9738	   1.5717	        1.4676	          0.1040	   1.5717	        1.4676	1000000.0000	8.673e-04	1.319e+00	1.521e+03	1.523e+03	 1.0000	 0.0000	 0.0000	 0.0000	 1.00000	   2.1529	   1.0813	   0.4618	   0.0245	   0.5950	   0.2246	   0.8469	9.683e+02	1.271e-01	  13.296	 52907.975
143200	143200	 6.1141	 1.9750	   1.5719	        1.4676	          0.1043	   1.5719	        1.4676	1000000.0000	1.885e-02	2.868e+01	1.521e+03	1.550e+03	 1.0000	 0.0000	 0.0000	 0.0000	 1.00000	  19.7141	   1.0814	   0.4614	   0.0245	   0.5955	   0.2246	  18.4081	9.896e+02	1.271e-01	  14.498	 53244.807
144000	144000	 6.2033	 1.9755	   1.5721	        1.4676	          0.1044	   1.5721	        1.4676	1000000.0000	3.364e-02	5.117e+01	1.521e+03	1.572e+03	 1.0000	 0.0000	 0.0000	 0.0000	 1.00000	  34.1539	   1.0816	   0.4614	   0.0245	   0.5957	   0.2246	  32.8477	1.004e+03	1.271e-01	   4.631	 53599.951
144800	144800	 5.6339	 1.9743	   1.5714	        1.4676	          0.1037	   1.5714	        1.4676	1000000.0000	6.075e-02	9.241e+01	1.521e+03	1.429e+03	 1.0000	 0.0000	 0.0000	 0.0000	 1.00000	  60.6309	   1.0849	   0.4652	   0.0245	   0.5952	   0.2246	  59.3214	9.120e+02	1.271e-01	   4.395	 53891.694
145600	145600	 5.7982	 1.9736	   1.5715	        1.4676	          0.1038	   1.5715	        1.4676	1000000.0000	3.352e-02	5.100e+01	1.521e+03	1.470e+03	 1.0000	 0.0000	 0.0000	 0.0000	 1.00000	  34.0462	   1.0826	   0.4633	   0.0245	   0.5949	   0.2246	  32.7390	9.385e+02	1.271e-01	   4.929	 54230.728
146400	146400	 5.8963	 1.9740	   1.5716	        1.4676	          0.1039	   1.5716	        1.4676	1000000.0000	1.726e-02	2.626e+01	1.521e+03	1.495e+03	 1.0000	 0.0000	 0.0000	 0.0000	 1.00000	  18.1664	   1.0819	   0.4624	   0.0245	   0.5950	   0.2246	  16.8599	9.544e+02	1.271e-01	   4.892	 54461.091
147200	147200	 6.3079	 1.9742	   1.5720	        1.4676	          0.1044	   1.5720	        1.4676	1000000.0000	5.096e-02	7.753e+01	1.521e+03	1.599e+03	 1.0000	 0.0000	 0.0000	 0.0000	 1.00000	  51.0732	   1.0817	   0.4621	   0.0245	   0.5952	   0.2246	  49.7668	1.021e+03	1.271e-01	   5.313	 54696.380
148000	148000	 6.5567	 1.9746	   1.5723	        1.4676	          0.1047	   1.5723	        1.4676	1000000.0000	9.221e-02	1.403e+02	1.521e+03	1.662e+03	 1.0000	 0.0000	 0.0000	 0.0000	 1.00000	  91.3531	   1.0841	   0.4643	   0.0245	   0.5953	   0.2246	  90.0444	1.061e+03	1.271e-01	   4.471	 55075.607
148800	148800	 5.7878	 1.9746	   1.5716	        1.4676	          0.1039	   1.5716	        1.4676	1000000.0000	3.524e-02	5.360e+01	1.521e+03	1.468e+03	 1.0000	 0.0000	 0.0000	 0.0000	 1.00000	  35.7171	   1.0829	   0.4631	   0.0245	   0.5953	   0.2246	  34.4095	9.369e+02	1.271e-01	   4.157	 55372.469
149600	149600	 5.7874	 1.9739	   1.5715	        1.4676	          0.1038	   1.5715	        1.4676	1000000.0000	3.531e-02	5.371e+01	1.521e+03	1.468e+03	 1.0000	 0.0000	 0.0000	 0.0000	 1.00000	  35.7850	   1.0828	   0.4633	   0.0245	   0.5950	   0.2246	  34.4777	9.368e+02	1.271e-01	   6.900	 55673.266
150400	150400	 5.6830	 1.9733	   1.5713	        1.4676	          0.1037	   1.5713	        1.4676	1000000.0000	5.260e-02	8.003e+01	1.521e+03	1.441e+03	 1.0000	 0.0000	 0.0000	 0.0000	 1.00000	  52.6804	   1.0839	   0.4647	   0.0245	   0.5947	   0.2246	  51.3719	9.199e+02	1.271e-01	   9.285	 55991.254
151200	151200	 6.5725	 1.9735	   1.5722	        1.4676	          0.1046	   1.5722	        1.4676	1000000.0000	9.482e-02	1.443e+02	1.521e+03	1.666e+03	 1.0000	 0.0000	 0.0000	 0.0000	 1.00000	  93.9104	   1.0840	   0.4647	   0.0245	   0.5948	   0.2246	  92.6018	1.064e+03	1.271e-01	   6.172	 56268.634
152000	152000	 5.6960	 1.9722	   1.5712	        1.4676	          0.1035	   1.5712	        1.4676	1000000.0000	5.046e-02	7.676e+01	1.521e+03	1.445e+03	 1.0000	 0.0000	 0.0000	 0.0000	 1.00000	  50.5822	   1.0835	   0.4648	   0.0245	   0.5943	   0.2246	  49.2741	9.220e+02	1.272e-01	   4.764	 56536.462
152800	152800	 5.5365	 1.9728	   1.5711	        1.4676	          0.1035	   1.5711	        1.4676	1000000.0000	7.690e-02	1.170e+02	1.521e+03	1.404e+03	 1.0000	 0.0000	 0.0000	 0.0000	 1.00000	  76.4053	   1.0862	   0.4672	   0.0245	   0.5945	   0.2246	  75.0945	8.962e+02	1.272e-01	   4.531	 56868.206
153600	153600	 5.7902	 1.9732	   1.5714	        1.4676	          0.1037	   1.5714	        1.4676	1000000.0000	3.485e-02	5.302e+01	1.521e+03	1.468e+03	 1.0000	 0.0000	 0.0000	 0.0000	 1.00000	  35.3428	   1.0826	   0.4634	   0.0245	   0.5947	   0.2246	  34.0356	9.372e+02	1.271e-01	   4.851	 57130.341
154400	154400	 6.2907	 1.9727	   1.5718	        1.4676	          0.1042	   1.5718	        1.4676	1000000.0000	4.810e-02	7.318e+01	1.521e+03	1.594e+03	 1.0000	 0.0000	 0.0000	 0.0000	 1.00000	  48.2807	   1.0813	   0.4624	   0.0245	   0.5945	   0.2246	  46.9748	1.018e+03	1.271e-01	   4.402	 57369.008
155200	155200	 6.4866	 1.9736	   1.5721	        1.4676	          0.1045	   1.5721	        1.4676	1000000.0000	8.059e-02	1.226e+02	1.521e+03	1.644e+03	 1.0000	 0.0000	 0.0000	 0.0000	 1.00000	  80.0043	   1.0831	   0.4637	   0.0245	   0.5949	   0.2246	  78.6966	1.050e+03	1.271e-01	   5.933	 57744.191
156000	156000	 6.1791	 1.9733	   1.5718	        1.4676	          0.1041	   1.5718	        1.4676	1000000.0000	2.961e-02	4.504e+01	1.521e+03	1.566e+03	 1.0000	 0.0000	 0.0000	 0.0000	 1.00000	  30.2202	   1.0811	   0.4618	   0.0245	   0.5947	   0.2246	  28.9146	1.000e+03	1.271e-01	   4.867	 58025.150
156800	156800	 6.5631	 1.9733	   1.5722	        1.4676	          0.1045	   1.5722	        1.4676	1000000.0000	9.325e-02	1.419e+02	1.521e+03	1.663e+03	 1.0000	 0.0000	 0.0000	 0.0000	 1.00000	  92.3769	   1.0839	   0.4646	   0.0245	   0.5948	   0.2245	  91.0684	1.062e+03	1.271e-01	   4.422	 58542.300
157600	157600	 6.3582	 1.9726	   1.5719	        1.4676	          0.1042	   1.5719	        1.4676	1000000.0000	5.930e-02	9.021e+01	1.521e+03	1.611e+03	 1.0000	 0.0000	 0.0000	 0.0000	 1.00000	  59.2157	   1.0817	   0.4628	   0.0245	   0.5944	   0.2245	  57.9094	1.029e+03	1.271e-01	   4.577	 58818.166
158400	158400	 5.5361	 1.9728	   1.5711	        1.4676	          0.1035	   1.5711	        1.4676	1000000.0000	7.696e-02	1.171e+02	1.521e+03	1.404e+03	 1.0000	 0.0000	 0.0000	 0.0000	 1.00000	  76.4649	   1.0862	   0.4672	   0.0245	   0.5945	   0.2245	  75.1542	8.962e+02	1.272e-01	   4.482	 59062.221
159200	159200	 5.4694	 1.9725	   1.5710	        1.4676	          0.1034	   1.5710	        1.4676	1000000.0000	8.801e-02	1.339e+02	1.521e+03	1.387e+03	 1.0000	 0.0000	 0.0000	 0.0000	 1.00000	  87.2593	   1.0875	   0.4686	   0.0245	   0.5944	   0.2245	  85.9473	8.854e+02	1.272e-01	   4.686	 59354.102
160000	160000	 6.1120	 1.9731	   1.5717	        1.4676	          0.1040	   1.5717	        1.4676	1000000.0000	1.850e-02	2.814e+01	1.521e+03	1.549e+03	 1.0000	 0.0000	 0.0000	 0.0000	 1.00000	  19.3719	   1.0810	   0.4618	   0.0245	   0.5946	   0.2245	  18.0664	9.893e+02	1.271e-01	   4.464	 59631.727
160800	160800	 6.0572	 1.9724	   1.5716	        1.4676	          0.1039	   1.5716	        1.4676	1000000.0000	9.406e-03	1.431e+01	1.521e+03	1.536e+03	 1.0000	 0.0000	 0.0000	 0.0000	 1.00000	  10.4909	   1.0809	   0.4620	   0.0245	   0.5944	   0.2245	   9.1855	9.804e+02	1.272e-01	   4.501	 59945.535
161600	161600	 6.3681	 1.9725	   1.5719	        1.4676	          0.1042	   1.5719	        1.4676	1000000.0000	6.094e-02	9.270e+01	1.521e+03	1.614e+03	 1.0000	 0.0000	 0.0000	 0.0000	 1.00000	  60.8139	   1.0818	   0.4629	   0.0245	   0.5944	   0.2245	  59.5076	1.031e+03	1.271e-01	   4.566	 60280.802
162400	162400	 6.5594	 1.9723	   1.5721	        1.4676	          0.1044	   1.5721	        1.4676	1000000.0000	9.264e-02	1.409e+02	1.521e+03	1.662e+03	 1.0000	 0.0000	 0.0000	 0.0000	 1.00000	  91.7767	   1.0836	   0.4648	   0.0245	   0.5943	   0.2245	  90.4686	1.062e+03	1.271e-01	  13.277	 60658.376
163200	163200	 5.7864	 1.9719	   1.5712	        1.4676	          0.1036	   1.5712	        1.4676	1000000.0000	3.548e-02	5.397e+01	1.521e+03	1.467e+03	 1.0000	 0.0000	 0.0000	 0.0000	 1.00000	  35.9546	   1.0824	   0.4638	   0.0245	   0.5941	   0.2245	  34.6477	9.366e+02	1.272e-01	  11.303	 61000.569
164000	164000	 6.0545	 1.9717	   1.5715	        1.4676	          0.1038	   1.5715	        1.4676	1000000.0000	8.961e-03	1.363e+01	1.521e+03	1.535e+03	 1.0000	 0.0000	 0.0000	 0.0000	 1.00000	  10.0564	   1.0807	   0.4622	   0.0245	   0.5940	   0.2245	   8.7512	9.799e+02	1.272e-01	   4.503	 61319.289
164800	164800	 5.8766	 1.9720	   1.5713	        1.4676	          0.1037	   1.5713	        1.4676	1000000.0000	2.052e-02	3.122e+01	1.521e+03	1.490e+03	 1.0000	 0.0000	 0.0000	 0.0000	 1.00000	  21.3446	   1.0816	   0.4630	   0.0245	   0.5942	   0.2245	  20.0384	9.512e+02	1.272e-01	   8.927	 61574.279
165600	165600	 6.1802	 1.9716	   1.5716	        1.4676	          0.1039	   1.5716	        1.4676	1000000.0000	2.979e-02	4.532e+01	1.521e+03	1.567e+03	 1.0000	 0.0000	 0.0000	 0.0000	 1.00000	  30.3960	   1.0807	   0.4622	   0.0245	   0.5940	   0.2245	  29.0907	1.000e+03	1.272e-01	   4.281	 61818.203
166400	166400	 5.6575	 1.9714	   1.5710	        1.4676	          0.1034	   1.5710	        1.4676	1000000.0000	5.685e-02	8.648e+01	1.521e+03	1.435e+03	 1.0000	 0.0000	 0.0000	 0.0000	 1.00000	  56.8230	   1.0839	   0.4655	   0.0245	   0.5939	   0.2245	  55.5146	9.158e+02	1.272e-01	   4.712	 62149.653
167200	167200	 6.0567	 1.9712	   1.5714	        1.4676	          0.1037	   1.5714	        1.4676	1000000.0000	9.320e-03	1.418e+01	1.521e+03	1.535e+03	 1.0000	 0.0000	 0.0000	 0.0000	 1.00000	  10.4067	   1.0806	   0.4623	   0.0245	   0.5938	   0.2245	   9.1016	9.803e+02	1.272e-01	   4.792	 62434.586
168000	168000	 5.5484	 1.9712	   1.5709	        1.4676	          0.1033	   1.5709	        1.4676	1000000.0000	7.493e-02	1.140e+02	1.521e+03	1.407e+03	 1.0000	 0.0000	 0.0000	 0.0000	 1.00000	  74.4846	   1.0856	   0.4673	   0.0245	   0.5938	   0.2245	  73.1744	8.982e+02	1.272e-01	   4.462	 62710.099
168800	168800	 5.6371	 1.9705	   1.5709	        1.4676	          0.1033	   1.5709	        1.4676	1000000.0000	6.023e-02	9.162e+01	1.521e+03	1.430e+03	 1.0000	 0.0000	 0.0000	 0.0000	 1.00000	  60.1227	   1.0840	   0.4660	   0.0245	   0.5935	   0.2245	  58.8142	9.125e+02	1.272e-01	   5.193	 62993.141
169600	169600	 5.9993	 1.9707	   1.5713	        1.4676	          0.1036	   1.5713	        1.4676	1000000.0000	2.100e-04	3.195e-01	1.521e+03	1.521e+03	 1.0000	 0.0000	 0.0000	 0.0000	 1.00000	   1.5103	   1.0807	   0.4626	   0.0245	   0.5936	   0.2245	   0.2051	9.017e+02	1.272e-01	   8.571	 63313.430
170400	170400	 5.6940	 1.9714	   1.5711	        1.4676	          0.1034	   1.5711	        1.4676	1000000.0000	5.079e-02	7.727e+01	1.521e+03	1.444e+03	 1.0000	 0.0000	 0.0000	 0.0000	 1.00000	  50.9111	   1.0834	   0.4650	   0.0245	   0.5939	   0.2245	  49.6032	9.217e+02	1.272e-01	   4.738	 63586.527
171200	171200	 5.4676	 1.9708	   1.5708	        1.4676	          0.1031	   1.5708	        1.4676	1000000.0000	8.832e-02	1.344e+02	1.521e+03	1.387e+03	 1.0000	 0.0000	 0.0000	 0.0000	 1.00000	  87.5590	   1.0871	   0.4690	   0.0245	   0.5936	   0.2245	  86.2473	8.851e+02	1.272e-01	   4.057	 63821.902
172000	172000	 6.5001	 1.9716	   1.5719	        1.4676	          0.1043	   1.5719	        1.4676	1000000.0000	8.282e-02	1.260e+02	1.521e+03	1.647e+03	 1.0000	 0.0000	 0.0000	 0.0000	 1.00000	  82.1855	   1.0828	   0.4643	   0.0245	   0.5940	   0.2245	  80.8782	1.052e+03	1.272e-01	   4.941	 64104.869
172800	172800	 5.4968	 1.9711	   1.5709	        1.4676	          0.1032	   1.5709	        1.4676	1000000.0000	8.349e-02	1.270e+02	1.521e+03	1.394e+03	 1.0000	 0.0000	 0.0000	 0.0000	 1.00000	  82.8414	   1.0866	   0.4683	   0.0245	   0.5938	   0.2245	  81.5303	8.898e+02	1.272e-01	   4.544	 64383.314
173600	173600	 5.8712	 1.9710	   1.5712	        1.4676	          0.1036	   1.5712	        1.4676	1000000.0000	2.142e-02	3.258e+01	1.521e+03	1.489e+03	 1.0000	 0.0000	 0.0000	 0.0000	 1.00000	  22.2222	   1.0815	   0.4632	   0.0245	   0.5937	   0.2245	  20.9163	9.504e+02	1.272e-01	   4.042	 64625.147
174400	174400	 6.2423	 1.9709	   1.5715	        1.4676	          0.1039	   1.5715	        1.4676	1000000.0000	4.009e-02	6.099e+01	1.521e+03	1.582e+03	 1.0000	 0.0000	 0.0000	 0.0000	 1.00000	  40.4554	   1.0807	   0.4626	   0.0245	   0.5937	   0.2245	  39.1502	1.010e+03	1.272e-01	   6.188	 64987.944
175200	175200	 5.5447	 1.9701	   1.5708	        1.4676	          0.1031	   1.5708	        1.4676	1000000.0000	7.555e-02	1.149e+02	1.521e+03	1.406e+03	 1.0000	 0.0000	 0.0000	 0.0000	 1.00000	  75.0862	   1.0855	   0.4677	   0.0245	   0.5933	   0.2245	  73.7763	8.976e+02	1.272e-01	   4.865	 65228.970
176000	176000	 5.4626	 1.9705	   1.5708	        1.4676	          0.1031	   1.5708	        1.4676	1000000.0000	8.915e-02	1.356e+02	1.521e+03	1.386e+03	 1.0000	 0.0000	 0.0000	 0.0000	 1.00000	  88.3677	   1.0872	   0.4692	   0.0245	   0.5935	   0.2245	  87.0561	8.843e+02	1.272e-01	   5.709	 65526.315
176800	176800	 5.6913	 1.9700	   1.5709	        1.4676	          0.1032	   1.5709	        1.4676	1000000.0000	5.124e-02	7.795e+01	1.521e+03	1.443e+03	 1.0000	 0.0000	 0.0000	 0.0000	 1.00000	  51.3462	   1.0831	   0.4654	   0.0245	   0.5933	   0.2244	  50.0387	9.213e+02	1.272e-01	   7.139	 65855.272
177600	177600	 5.9277	 1.9706	   1.5712	        1.4676	          0.1036	   1.5712	        1.4676	1000000.0000	1.206e-02	1.834e+01	1.521e+03	1.503e+03	 1.0000	 0.0000	 0.0000	 0.0000	 1.00000	  13.0816	   1.0810	   0.4629	   0.0245	   0.5936	   0.2244	  11.7762	9.595e+02	1.272e-01	   4.083	 66288.574
178400	178400	 6.4898	 1.9702	   1.5717	        1.4676	          0.1041	   1.5717	        1.4676	1000000.0000	8.110e-02	1.234e+02	1.521e+03	1.645e+03	 1.0000	 0.0000	 0.0000	 0.0000	 1.00000	  80.5107	   1.0824	   0.4645	   0.0245	   0.5934	   0.2244	  79.2039	1.051e+03	1.272e-01	   4.792	 66574.826
179200	179200	 5.6461	 1.9708	   1.5710	        1.4676	          0.1033	   1.5710	        1.4676	1000000.0000	5.874e-02	8.936e+01	1.521e+03	1.432e+03	 1.0000	 0.0000	 0.0000	 0.0000	 1.00000	  58.6693	   1.0839	   0.4658	   0.0245	   0.5936	   0.2244	  57.3610	9.140e+02	1.272e-01	   4.647	 66832.676
180000	180000	 5.6947	 1.9712	   1.5711	        1.4676	          0.1034	   1.5711	        1.4676	1000000.0000	5.068e-02	7.709e+01	1.521e+03	1.444e+03	 1.0000	 0.0000	 0.0000	 0.0000	 1.00000	  50.7957	   1.0833	   0.4650	   0.0245	   0.5938	   0.2244	  49.4880	9.218e+02	1.272e-01	   5.649	 67115.023
180800	180800	 6.0709	 1.9703	   1.5713	        1.4676	          0.1037	   1.5713	        1.4676	1000000.0000	1.167e-02	1.775e+01	1.521e+03	1.539e+03	 1.0000	 0.0000	 0.0000	 0.0000	 1.00000	  12.7013	   1.0804	   0.4625	   0.0245	   0.5934	   0.2244	  11.3965	9.826e+02	1.272e-01	   8.772	 67415.550
181600	181600	 6.3109	 1.9701	   1.5715	        1.4676	          0.1039	   1.5715	        1.4676	1000000.0000	5.144e-02	7.826e+01	1.521e+03	1.600e+03	 1.0000	 0.0000	 0.0000	 0.0000	 1.00000	  51.5426	   1.0809	   0.4631	   0.0245	   0.5933	   0.2244	  50.2373	1.022e+03	1.272e-01	   7.869	 67718.783
182400	182400	 6.5067	 1.9703	   1.5717	        1.4676	          0.1041	   1.5717	        1.4676	1000000.0000	8.390e-02	1.276e+02	1.521e+03	1.649e+03	 1.0000	 0.0000	 0.0000	 0.0000	 1.00000	  83.2424	   1.0826	   0.4647	   0.0245	   0.5934	   0.2244	  81.9354	1.053e+03	1.272e-01	   5.564	 67994.399
183200	183200	 5.5888	 1.9693	   1.5707	        1.4676	          0.1031	   1.5707	        1.4676	1000000.0000	6.823e-02	1.038e+02	1.521e+03	1.417e+03	 1.0000	 0.0000	 0.0000	 0.0000	 1.00000	  67.9406	   1.0845	   0.4671	   0.0245	   0.5930	   0.2244	  66.6316	9.047e+02	1.272e-01	   6.885	 68363.704
184000	184000	 5.9303	 1.9692	   1.5710	        1.4676	          0.1034	   1.5710	        1.4676	1000000.0000	1.163e-02	1.769e+01	1.521e+03	1.504e+03	 1.0000	 0.0000	 0.0000	 0.0000	 1.00000	  12.6604	   1.0807	   0.4633	   0.0245	   0.5929	   0.2244	  11.3553	9.599e+02	1.272e-01	   4.883	 68857.300
184800	184800	 5.8435	 1.9691	   1.5709	        1.4676	          0.1033	   1.5709	        1.4676	1000000.0000	2.602e-02	3.958e+01	1.521e+03	1.482e+03	 1.0000	 0.0000	 0.0000	 0.0000	 1.00000	  26.7164	   1.0813	   0.4639	   0.0245	   0.5929	   0.2244	  25.4107	9.459e+02	1.272e-01	   4.123	 69195.152
185600	185600	 5.6444	 1.9686	   1.5707	        1.4676	          0.1030	   1.5707	        1.4676	1000000.0000	5.902e-02	8.978e+01	1.521e+03	1.431e+03	 1.0000	 0.0000	 0.0000	 0.0000	 1.00000	  58.9419	   1.0835	   0.4663	   0.0245	   0.5927	   0.2244	  57.6340	9.137e+02	1.272e-01	   5.914	 69457.434
186400	186400	 6.4353	 1.9702	   1.5717	        1.4676	          0.1040	   1.5717	        1.4676	1000000.0000	7.207e-02	1.096e+02	1.521e+03	1.631e+03	 1.0000	 0.0000	 0.0000	 0.0000	 1.00000	  71.6866	   1.0818	   0.4640	   0.0245	   0.5934	   0.2244	  70.3803	1.042e+03	1.272e-01	   9.098	 69719.184
187200	187200	 6.1335	 1.9688	   1.5712	        1.4676	          0.1035	   1.5712	        1.4676	1000000.0000	2.204e-02	3.353e+01	1.521e+03	1.555e+03	 1.0000	 0.0000	 0.0000	 0.0000	 1.00000	  22.8265	   1.0801	   0.4628	   0.0245	   0.5927	   0.2244	  21.5221	9.928e+02	1.272e-01	   4.434	 70096.954
188000	188000	 5.6639	 1.9691	   1.5708	        1.4676	          0.1031	   1.5708	        1.4676	1000000.0000	5.579e-02	8.487e+01	1.521e+03	1.436e+03	 1.0000	 0.0000	 0.0000	 0.0000	 1.00000	  55.7912	   1.0833	   0.4660	   0.0245	   0.5929	   0.2244	  54.4835	9.168e+02	1.272e-01	   4.589	 70325.861
188800	188800	 5.5828	 1.9685	   1.5706	        1.4676	          0.1030	   1.5706	        1.4676	1000000.0000	6.924e-02	1.053e+02	1.521e+03	1.416e+03	 1.0000	 0.0000	 0.0000	 0.0000	 1.00000	  68.9216	   1.0845	   0.4674	   0.0245	   0.5926	   0.2244	  67.6128	9.037e+02	1.272e-01	   4.144	 70675.586
189600	189600	 6.5610	 1.9692	   1.5717	        1.4676	          0.1040	   1.5717	        1.4676	1000000.0000	9.290e-02	1.413e+02	1.521e+03	1.663e+03	 1.0000	 0.0000	 0.0000	 0.0000	 1.00000	  92.0309	   1.0830	   0.4656	   0.0245	   0.5929	   0.2244	  90.7235	1.062e+03	1.272e-01	   4.689	 71055.014
190400	190400	 5.9564	 1.9690	   1.5710	        1.4676	          0.1034	   1.5710	        1.4676	1000000.0000	7.308e-03	1.112e+01	1.521e+03	1.510e+03	 1.0000	 0.0000	 0.0000	 0.0000	 1.00000	   8.4414	   1.0805	   0.4632	   0.0245	   0.5928	   0.2244	   7.1365	9.641e+02	1.272e-01	   4.095	 71349.540
191200	191200	 6.4238	 1.9692	   1.5715	        1.4676	          0.1039	   1.5715	        1.4676	1000000.0000	7.017e-02	1.067e+02	1.521e+03	1.628e+03	 1.0000	 0.0000	 0.0000	 0.0000	 1.00000	  69.8267	   1.0815	   0.4641	   0.0245	   0.5929	   0.2244	  68.5208	1.040e+03	1.272e-01	  10.095	 71746.555
192000	192000	 5.7021	 1.9688	   1.5708	        1.4676	          0.1031	   1.5708	        1.4676	1000000.0000	4.946e-02	7.525e+01	1.521e+03	1.446e+03	 1.0000	 0.0000	 0.0000	 0.0000	 1.00000	  49.6126	   1.0827	   0.4655	   0.0245	   0.5927	   0.2244	  48.3055	9.230e+02	1.272e-01	   4.659	 72130.653
192800	192800	 6.3661	 1.9690	   1.5714	        1.4676	          0.1038	   1.5714	        1.4676	1000000.0000	6.059e-02	9.218e+01	1.521e+03	1.613e+03	 1.0000	 0.0000	 0.0000	 0.0000	 1.00000	  60.4770	   1.0810	   0.4637	   0.0245	   0.5928	   0.2244	  59.1716	1.030e+03	1.272e-01	   4.076	 72530.678
193600	193600	 5.8411	 1.9688	   1.5709	        1.4676	          0.1032	   1.5709	        1.4676	1000000.0000	2.642e-02	4.019e+01	1.521e+03	1.481e+03	 1.0000	 0.0000	 0.0000	 0.0000	 1.00000	  27.1072	   1.0812	   0.4640	   0.0245	   0.5927	   0.2244	  25.8016	9.455e+02	1.272e-01	   4.928	 72850.718
194400	194400	 5.9213	 1.9689	   1.5710	        1.4676	          0.1033	   1.5710	        1.4676	1000000.0000	1.312e-02	1.996e+01	1.521e+03	1.501e+03	 1.0000	 0.0000	 0.0000	 0.0000	 1.00000	  14.1185	   1.0807	   0.4634	   0.0245	   0.5928	   0.2244	  12.8134	9.584e+02	1.272e-01	   5.423	 73141.197
195200	195200	 5.4693	 1.9683	   1.5705	        1.4676	          0.1028	   1.5705	        1.4676	1000000.0000	8.804e-02	1.339e+02	1.521e+03	1.387e+03	 1.0000	 0.0000	 0.0000	 0.0000	 1.00000	  87.2919	   1.0866	   0.4696	   0.0245	   0.5925	   0.2244	  85.9809	8.854e+02	1.272e-01	   6.755	 73435.640
196000	196000	 5.4713	 1.9676	   1.5704	        1.4676	          0.1027	   1.5704	        1.4676	1000000.0000	8.772e-02	1.334e+02	1.521e+03	1.388e+03	 1.0000	 0.0000	 0.0000	 0.0000	 1.00000	  86.9713	   1.0864	   0.4697	   0.0245	   0.5922	   0.2244	  85.6605	8.857e+02	1.272e-01	   4.165	 73688.981
196800	196800	 6.3271	 1.9680	   1.5713	        1.4676	          0.1036	   1.5713	        1.4676	1000000.0000	5.414e-02	8.235e+01	1.521e+03	1.604e+03	 1.0000	 0.0000	 0.0000	 0.0000	 1.00000	  54.1718	   1.0805	   0.4637	   0.0245	   0.5924	   0.2244	  52.8669	1.024e+03	1.272e-01	   7.153	 74032.298
197600	197600	 6.4316	 1.9672	   1.5713	        1.4676	          0.1036	   1.5713	        1.4676	1000000.0000	7.145e-02	1.087e+02	1.521e+03	1.630e+03	 1.0000	 0.0000	 0.0000	 0.0000	 1.00000	  71.0815	   1.0812	   0.4647	   0.0245	   0.5920	   0.2243	  69.7759	1.041e+03	1.272e-01	   4.778	 74367.241
198400	198400	 6.5151	 1.9684	   1.5715	        1.4676	          0.1039	   1.5715	        1.4676	1000000.0000	8.529e-02	1.298e+02	1.521e+03	1.651e+03	 1.0000	 0.0000	 0.0000	 0.0000	 1.00000	  84.6022	   1.0823	   0.4652	   0.0245	   0.5926	   0.2243	  83.2955	1.055e+03	1.272e-01	  13.114	 74645.480
199200	199200	 6.3177	 1.9672	   1.5712	        1.4676	          0.1035	   1.5712	        1.4676	1000000.0000	5.258e-02	7.998e+01	1.521e+03	1.601e+03	 1.0000	 0.0000	 0.0000	 0.0000	 1.00000	  52.6492	   1.0803	   0.4638	   0.0245	   0.5920	   0.2243	  51.3446	1.023e+03	1.272e-01	   4.432	 74901.893
200000	200000	 5.7146	 1.9667	   1.5705	        1.4676	          0.1028	   1.5705	        1.4676	1000000.0000	4.738e-02	7.208e+01	1.521e+03	1.449e+03	 1.0000	 0.0000	 0.0000	 0.0000	 1.00000	  47.5799	   1.0821	   0.4658	   0.0245	   0.5918	   0.2243	  46.2734	9.250e+02	1.272e-01	   4.467	 75160.512
200800	200800	 6.5000	 1.9669	   1.5713	        1.4676	          0.1037	   1.5713	        1.4676	1000000.0000	8.279e-02	1.259e+02	1.521e+03	1.647e+03	 1.0000	 0.0000	 0.0000	 0.0000	 1.00000	  82.1532	   1.0818	   0.4654	   0.0245	   0.5919	   0.2243	  80.8470	1.052e+03	1.272e-01	   4.116	 75486.985
201600	201600	 5.9695	 1.9670	   1.5708	        1.4676	          0.1031	   1.5708	        1.4676	1000000.0000	5.141e-03	7.820e+00	1.521e+03	1.513e+03	 1.0000	 0.0000	 0.0000	 0.0000	 1.00000	   6.3246	   1.0800	   0.4636	   0.0245	   0.5920	   0.2243	   5.0203	9.661e+02	1.272e-01	   4.634	 75828.216
202400	202400	 5.6321	 1.9661	   1.5704	        1.4676	          0.1027	   1.5704	        1.4676	1000000.0000	6.107e-02	9.290e+01	1.521e+03	1.428e+03	 1.0000	 0.0000	 0.0000	 0.0000	 1.00000	  60.9463	   1.0832	   0.4671	   0.0245	   0.5916	   0.2243	  59.6388	9.117e+02	1.272e-01	   4.472	 76193.124
203200	203200	 5.4936	 1.9665	   1.5703	        1.4676	          0.1026	   1.5703	        1.4676	1000000.0000	8.402e-02	1.278e+02	1.521e+03	1.393e+03	 1.0000	 0.0000	 0.0000	 0.0000	 1.00000	  83.3617	   1.0857	   0.4695	   0.0245	   0.5917	   0.2243	  82.0517	8.893e+02	1.272e-01	   5.987	 76466.364
204000	204000	 5.5387	 1.9664	   1.5703	        1.4676	          0.1027	   1.5703	        1.4676	1000000.0000	7.654e-02	1.164e+02	1.521e+03	1.405e+03	 1.0000	 0.0000	 0.0000	 0.0000	 1.00000	  76.0584	   1.0848	   0.4686	   0.0245	   0.5917	   0.2243	  74.7493	8.966e+02	1.272e-01	   4.303	 76707.678
204800	204800	 6.0779	 1.9662	   1.5708	        1.4676	          0.1031	   1.5708	        1.4676	1000000.0000	1.283e-02	1.952e+01	1.521e+03	1.541e+03	 1.0000	 0.0000	 0.0000	 0.0000	 1.00000	  13.8319	   1.0796	   0.4635	   0.0245	   0.5916	   0.2243	  12.5281	9.837e+02	1.272e-01	   7.460	 76976.426
205600	205600	 6.1986	 1.9670	   1.5710	        1.4676	          0.1034	   1.5710	        1.4676	1000000.0000	3.284e-02	4.995e+01	1.521e+03	1.571e+03	 1.0000	 0.0000	 0.0000	 0.0000	 1.00000	  33.3699	   1.0798	   0.4633	   0.0245	   0.5920	   0.2243	  32.0657	1.003e+03	1.272e-01	   5.689	 77280.380
206400	206400	 6.4336	 1.9667	   1.5712	        1.4676	          0.1036	   1.5712	        1.4676	1000000.0000	7.178e-02	1.092e+02	1.521e+03	1.630e+03	 1.0000	 0.0000	 0.0000	 0.0000	 1.00000	  71.4019	   1.0811	   0.4648	   0.0245	   0.5918	   0.2243	  70.0965	1.041e+03	1.272e-01	   4.213	 77574.627
207200	207200	 5.7863	 1.9665	   1.5705	        1.4676	          0.1029	   1.5705	        1.4676	1000000.0000	3.551e-02	5.402e+01	1.521e+03	1.467e+03	 1.0000	 0.0000	 0.0000	 0.0000	 1.00000	  35.9808	   1.0813	   0.4650	   0.0245	   0.5917	   0.2243	  34.6753	9.366e+02	1.272e-01	   6.707	 77903.926
208000	208000	 6.1422	 1.9666	   1.5709	        1.4676	          0.1032	   1.5709	        1.4676	1000000.0000	2.347e-02	3.571e+01	1.521e+03	1.557e+03	 1.0000	 0.0000	 0.0000	 0.0000	 1.00000	  24.2282	   1.0796	   0.4634	   0.0245	   0.5917	   0.2243	  22.9243	9.942e+02	1.272e-01	   5.195	 78185.313
208800	208800	 6.2642	 1.9666	   1.5710	        1.4676	          0.1034	   1.5710	        1.4676	1000000.0000	4.370e-02	6.648e+01	1.521e+03	1.588e+03	 1.0000	 0.0000	 0.0000	 0.0000	 1.00000	  43.9819	   1.0799	   0.4637	   0.0245	   0.5918	   0.2243	  42.6777	1.014e+03	1.272e-01	   5.668	 78451.326
209600	209600	 6.1882	 1.9664	   1.5709	        1.4676	          0.1033	   1.5709	        1.4676	1000000.0000	3.110e-02	4.731e+01	1.521e+03	1.569e+03	 1.0000	 0.0000	 0.0000	 0.0000	 1.00000	  31.6753	   1.0797	   0.4635	   0.0245	   0.5917	   0.2243	  30.3714	1.002e+03	1.272e-01	   4.058	 78789.219
210400	210400	 5.8437	 1.9669	   1.5706	        1.4676	          0.1030	   1.5706	        1.4676	1000000.0000	2.600e-02	3.955e+01	1.521e+03	1.482e+03	 1.0000	 0.0000	 0.0000	 0.0000	 1.00000	  26.6962	   1.0808	   0.4644	   0.0245	   0.5919	   0.2243	  25.3911	9.459e+02	1.272e-01	   7.536	 79044.702
211200	211200	 5.6823	 1.9666	   1.5705	        1.4676	          0.1028	   1.5705	        1.4676	1000000.0000	5.274e-02	8.024e+01	1.521e+03	1.441e+03	 1.0000	 0.0000	 0.0000	 0.0000	 1.00000	  52.8148	   1.0825	   0.4663	   0.0245	   0.5918	   0.2243	  51.5079	9.198e+02	1.272e-01	   4.000	 79373.781
212000	212000	 6.2986	 1.9666	   1.5711	        1.4676	          0.1034	   1.5711	        1.4676	1000000.0000	4.941e-02	7.516e+01	1.521e+03	1.596e+03	 1.0000	 0.0000	 0.0000	 0.0000	 1.00000	  49.5542	   1.0801	   0.4638	   0.0245	   0.5918	   0.2243	  48.2498	1.020e+03	1.272e-01	   4.406	 79587.521
212800	212800	 5.9653	 1.9672	   1.5708	        1.4676	          0.1032	   1.5708	        1.4676	1000000.0000	5.842e-03	8.887e+00	1.521e+03	1.512e+03	 1.0000	 0.0000	 0.0000	 0.0000	 1.00000	   7.0094	   1.0801	   0.4635	   0.0245	   0.5920	   0.2243	   5.7051	9.655e+02	1.272e-01	   5.538	 79842.958
213600	213600	 6.1247	 1.9673	   1.5710	        1.4676	          0.1033	   1.5710	        1.4676	1000000.0000	2.057e-02	3.130e+01	1.521e+03	1.553e+03	 1.0000	 0.0000	 0.0000	 0.0000	 1.00000	  21.3962	   1.0798	   0.4632	   0.0245	   0.5921	   0.2243	  20.0922	9.913e+02	1.272e-01	   4.342	 80126.615
214400	214400	 5.4636	 1.9657	   1.5701	        1.4676	          0.1025	   1.5701	        1.4676	1000000.0000	8.900e-02	1.354e+02	1.521e+03	1.386e+03	 1.0000	 0.0000	 0.0000	 0.0000	 1.00000	  88.2228	   1.0862	   0.4703	   0.0245	   0.5914	   0.2243	  86.9124	8.845e+02	1.272e-01	   5.319	 80369.759
215200	215200	 5.5979	 1.9654	   1.5702	        1.4676	          0.1026	   1.5702	        1.4676	1000000.0000	6.674e-02	1.015e+02	1.521e+03	1.420e+03	 1.0000	 0.0000	 0.0000	 0.0000	 1.00000	  66.4877	   1.0836	   0.4678	   0.0245	   0.5912	   0.2243	  65.1799	9.062e+02	1.272e-01	   4.674	 80711.428
216000	216000	 5.6434	 1.9650	   1.5702	        1.4676	          0.1026	   1.5702	        1.4676	1000000.0000	5.920e-02	9.007e+01	1.521e+03	1.431e+03	 1.0000	 0.0000	 0.0000	 0.0000	 1.00000	  59.1239	   1.0828	   0.4672	   0.0245	   0.5911	   0.2243	  57.8169	9.135e+02	1.272e-01	   4.734	 81063.861
216800	216800	 5.6502	 1.9656	   1.5703	        1.4676	          0.1027	   1.5703	        1.4676	1000000.0000	5.806e-02	8.833e+01	1.521e+03	1.433e+03	 1.0000	 0.0000	 0.0000	 0.0000	 1.00000	  58.0083	   1.0828	   0.4670	   0.0245	   0.5913	   0.2243	  56.7012	9.146e+02	1.272e-01	   5.047	 81310.116
217600	217600	 6.2681	 1.9657	   1.5709	        1.4676	          0.1033	   1.5709	        1.4676	1000000.0000	4.435e-02	6.747e+01	1.521e+03	1.589e+03	 1.0000	 0.0000	 0.0000	 0.0000	 1.00000	  44.6127	   1.0798	   0.4639	   0.0245	   0.5914	   0.2242	  43.3087	1.015e+03	1.272e-01	   5.686	 81589.539
218400	218400	 5.6773	 1.9661	   1.5704	        1.4676	          0.1027	   1.5704	        1.4676	1000000.0000	5.357e-02	8.149e+01	1.521e+03	1.440e+03	 1.0000	 0.0000	 0.0000	 0.0000	 1.00000	  53.6192	   1.0825	   0.4665	   0.0245	   0.5915	   0.2242	  52.3125	9.190e+02	1.272e-01	   4.685	 81890.705
219200	219200	 5.8485	 1.9660	   1.5705	        1.4676	          0.1029	   1.5705	        1.4676	1000000.0000	2.520e-02	3.833e+01	1.521e+03	1.483e+03	 1.0000	 0.0000	 0.0000	 0.0000	 1.00000	  25.9109	   1.0806	   0.4646	   0.0245	   0.5915	   0.2242	  24.6061	9.467e+02	1.272e-01	   5.083	 82139.216
220000	220000	 6.1161	 1.9662	   1.5708	        1.4676	          0.1032	   1.5708	        1.4676	1000000.0000	1.916e-02	2.914e+01	1.521e+03	1.550e+03	 1.0000	 0.0000	 0.0000	 0.0000	 1.00000	  20.0119	   1.0795	   0.4634	   0.0245	   0.5916	   0.2242	  18.7081	9.899e+02	1.272e-01	   4.846	 82414.822
220800	220800	 5.5455	 1.9672	   1.5704	        1.4676	          0.1028	   1.5704	        1.4676	1000000.0000	7.542e-02	1.147e+02	1.521e+03	1.407e+03	 1.0000	 0.0000	 0.0000	 0.0000	 1.00000	  74.9612	   1.0849	   0.4683	   0.0245	   0.5920	   0.2242	  73.6522	8.977e+02	1.272e-01	   4.857	 82716.252
221600	221600	 5.7031	 1.9670	   1.5705	        1.4676	          0.1029	   1.5705	        1.4676	1000000.0000	4.929e-02	7.499e+01	1.521e+03	1.446e+03	 1.0000	 0.0000	 0.0000	 0.0000	 1.00000	  49.4433	   1.0823	   0.4659	   0.0245	   0.5919	   0.2242	  48.1368	9.232e+02	1.272e-01	   4.529	 82981.928
222400	222400	 6.5639	 1.9666	   1.5713	        1.4676	          0.1037	   1.5713	        1.4676	1000000.0000	9.338e-02	1.420e+02	1.521e+03	1.663e+03	 1.0000	 0.0000	 0.0000	 0.0000	 1.00000	  92.4933	   1.0825	   0.4662	   0.0245	   0.5918	   0.2242	  91.1866	1.063e+03	1.272e-01	   4.384	 83332.334
223200	223200	 5.9798	 1.9661	   1.5707	        1.4676	          0.1030	   1.5707	        1.4676	1000000.0000	3.437e-03	5.228e+00	1.521e+03	1.516e+03	 1.0000	 0.0000	 0.0000	 0.0000	 1.00000	   4.6604	   1.0798	   0.4637	   0.0245	   0.5916	   0.2242	   3.3564	9.677e+02	1.272e-01	   4.781	 83596.172
224000	224000	 5.5968	 1.9657	   1.5703	        1.4676	          0.1026	   1.5703	        1.4676	1000000.0000	6.691e-02	1.018e+02	1.521e+03	1.419e+03	 1.0000	 0.0000	 0.0000	 0.0000	 1.00000	  66.6506	   1.0836	   0.4678	   0.0245	   0.5914	   0.2242	  65.3427	9.060e+02	1.272e-01	   9.438	 83872.602
224800	224800	 5.9741	 1.9655	   1.5706	        1.4676	          0.1029	   1.5706	        1.4676	1000000.0000	4.392e-03	6.681e+00	1.521e+03	1.515e+03	 1.0000	 0.0000	 0.0000	 0.0000	 1.00000	   5.5926	   1.0797	   0.4639	   0.0245	   0.5913	   0.2242	   4.2887	9.669e+02	1.272e-01	   4.551	 84144.727
225600	225600	 5.9021	 1.9656	   1.5705	        1.4676	          0.1029	   1.5705	        1.4676	1000000.0000	1.632e-02	2.482e+01	1.521e+03	1.496e+03	 1.0000	 0.0000	 0.0000	 0.0000	 1.00000	  17.2371	   1.0801	   0.4643	   0.0245	   0.5913	   0.2242	  15.9328	9.553e+02	1.272e-01	   4.821	 84409.198
226400	226400	 6.0782	 1.9653	   1.5707	        1.4676	          0.1030	   1.5707	        1.4676	1000000.0000	1.286e-02	1.957e+01	1.521e+03	1.541e+03	 1.0000	 0.0000	 0.0000	 0.0000	 1.00000	  13.8640	   1.0794	   0.4637	   0.0245	   0.5912	   0.2242	  12.5605	9.838e+02	1.272e-01	   4.727	 84712.461
227200	227200	 5.5832	 1.9645	   1.5701	        1.4676	          0.1025	   1.5701	        1.4676	1000000.0000	6.918e-02	1.052e+02	1.521e+03	1.416e+03	 1.0000	 0.0000	 0.0000	 0.0000	 1.00000	  68.8622	   1.0836	   0.4683	   0.0245	   0.5908	   0.2242	  67.5544	9.038e+02	1.272e-01	   5.099	 84993.682
228000	228000	 5.6081	 1.9644	   1.5701	        1.4676	          0.1025	   1.5701	        1.4676	1000000.0000	6.505e-02	9.896e+01	1.521e+03	1.422e+03	 1.0000	 0.0000	 0.0000	 0.0000	 1.00000	  64.8353	   1.0832	   0.4679	   0.0245	   0.5908	   0.2242	  63.5279	9.078e+02	1.272e-01	   3.846	 85283.108
228800	228800	 6.2310	 1.9642	   1.5707	        1.4676	          0.1030	   1.5707	        1.4676	1000000.0000	3.819e-02	5.809e+01	1.521e+03	1.579e+03	 1.0000	 0.0000	 0.0000	 0.0000	 1.00000	  38.5964	   1.0793	   0.4641	   0.0245	   0.5907	   0.2242	  37.2929	1.009e+03	1.272e-01	   4.372	 85560.028
229600	229600	 6.5646	 1.9655	   1.5712	        1.4676	          0.1035	   1.5712	        1.4676	1000000.0000	9.349e-02	1.422e+02	1.521e+03	1.663e+03	 1.0000	 0.0000	 0.0000	 0.0000	 1.00000	  92.6034	   1.0823	   0.4665	   0.0245	   0.5913	   0.2242	  91.2969	1.063e+03	1.272e-01	   4.184	 85818.776
230400	230400	 6.4265	 1.9649	   1.5710	        1.4676	          0.1033	   1.5710	        1.4676	1000000.0000	7.060e-02	1.074e+02	1.521e+03	1.629e+03	 1.0000	 0.0000	 0.0000	 0.0000	 1.00000	  70.2495	   1.0807	   0.4652	   0.0245	   0.5910	   0.2242	  68.9447	1.040e+03	1.272e-01	   3.970	 86135.493
231200	231200	 5.4618	 1.9644	   1.5700	        1.4676	          0.1023	   1.5700	        1.4676	1000000.0000	8.930e-02	1.358e+02	1.521e+03	1.385e+03	 1.0000	 0.0000	 0.0000	 0.0000	 1.00000	  88.5154	   1.0859	   0.4707	   0.0245	   0.5908	   0.2242	  87.2052	8.842e+02	1.272e-01	   2.406	 86462.171
232000	232000	 5.8418	 1.9639	   1.5703	        1.4676	          0.1026	   1.5703	        1.4676	1000000.0000	2.632e-02	4.004e+01	1.521e+03	1.481e+03	 1.0000	 0.0000	 0.0000	 0.0000	 1.00000	  27.0095	   1.0802	   0.4651	   0.0245	   0.5906	   0.2242	  25.7051	9.456e+02	1.272e-01	  10.095	 86918.152
232800	232800	 5.9054	 1.9644	   1.5704	        1.4676	          0.1027	   1.5704	        1.4676	1000000.0000	1.578e-02	2.400e+01	1.521e+03	1.497e+03	 1.0000	 0.0000	 0.0000	 0.0000	 1.00000	  16.7132	   1.0798	   0.4645	   0.0245	   0.5908	   0.2242	  15.4092	9.559e+02	1.272e-01	   3.295	 87232.495
233600	233600	 5.5579	 1.9635	   1.5700	        1.4676	          0.1023	   1.5700	        1.4676	1000000.0000	7.337e-02	1.116e+02	1.521e+03	1.410e+03	 1.0000	 0.0000	 0.0000	 0.0000	 1.00000	  72.9621	   1.0839	   0.4690	   0.0245	   0.5904	   0.2242	  71.6541	8.997e+02	1.272e-01	   4.235	 87596.776
234400	234400	 6.1717	 1.9634	   1.5705	        1.4676	          0.1029	   1.5705	        1.4676	1000000.0000	2.837e-02	4.315e+01	1.521e+03	1.564e+03	 1.0000	 0.0000	 0.0000	 0.0000	 1.00000	  29.0060	   1.0790	   0.4641	   0.0245	   0.5903	   0.2242	  27.7029	9.990e+02	1.272e-01	  11.579	 87957.394
235200	235200	 6.5775	 1.9646	   1.5711	        1.4676	          0.1035	   1.5711	        1.4676	1000000.0000	9.563e-02	1.455e+02	1.521e+03	1.667e+03	 1.0000	 0.0000	 0.0000	 0.0000	 1.00000	  94.6949	   1.0823	   0.4669	   0.0245	   0.5909	   0.2242	  93.3885	1.065e+03	1.272e-01	  11.826	 88339.805
236000	236000	 5.4522	 1.9634	   1.5698	        1.4676	          0.1022	   1.5698	        1.4676	1000000.0000	9.088e-02	1.383e+02	1.521e+03	1.383e+03	 1.0000	 0.0000	 0.0000	 0.0000	 1.00000	  90.0648	   1.0859	   0.4711	   0.0245	   0.5904	   0.2242	  88.7547	8.826e+02	1.272e-01	   6.123	 88580.481
236800	236800	 6.5024	 1.9646	   1.5710	        1.4676	          0.1034	   1.5710	        1.4676	1000000.0000	8.318e-02	1.265e+02	1.521e+03	1.648e+03	 1.0000	 0.0000	 0.0000	 0.0000	 1.00000	  82.5335	   1.0814	   0.4660	   0.0245	   0.5909	   0.2242	  81.2280	1.053e+03	1.272e-01	   6.808	 88878.012
237600	237600	 5.5519	 1.9635	   1.5699	        1.4676	          0.1023	   1.5699	        1.4676	1000000.0000	7.437e-02	1.131e+02	1.521e+03	1.408e+03	 1.0000	 0.0000	 0.0000	 0.0000	 1.00000	  73.9384	   1.0840	   0.4691	   0.0245	   0.5904	   0.2242	  72.6303	8.987e+02	1.272e-01	  12.644	 89220.648
238400	238400	 5.4545	 1.9637	   1.5699	        1.4676	          0.1022	   1.5699	        1.4676	1000000.0000	9.051e-02	1.377e+02	1.521e+03	1.384e+03	 1.0000	 0.0000	 0.0000	 0.0000	 1.00000	  89.6961	   1.0860	   0.4710	   0.0245	   0.5905	   0.2241	  88.3860	8.830e+02	1.272e-01	   5.673	 89600.549
239200	239200	 6.1108	 1.9632	   1.5704	        1.4676	          0.1028	   1.5704	        1.4676	1000000.0000	1.827e-02	2.779e+01	1.521e+03	1.549e+03	 1.0000	 0.0000	 0.0000	 0.0000	 1.00000	  19.1436	   1.0789	   0.4642	   0.0245	   0.5902	   0.2241	  17.8406	9.891e+02	1.272e-01	   3.236	 89930.086
240000	240000	 5.9740	 1.9627	   1.5702	        1.4676	          0.1026	   1.5702	        1.4676	1000000.0000	4.403e-03	6.698e+00	1.521e+03	1.515e+03	 1.0000	 0.0000	 0.0000	 0.0000	 1.00000	   5.6027	   1.0791	   0.4646	   0.0245	   0.5900	   0.2241	   4.2994	9.668e+02	1.272e-01	   3.385	 90204.917
240800	240800	 6.4276	 1.9625	   1.5707	        1.4676	          0.1030	   1.5707	        1.4676	1000000.0000	7.077e-02	1.077e+02	1.521e+03	1.629e+03	 1.0000	 0.0000	 0.0000	 0.0000	 1.00000	  70.4140	   1.0802	   0.4657	   0.0245	   0.5899	   0.2241	  69.1097	1.040e+03	1.272e-01	   4.281	 90631.795
241600	241600	 6.0904	 1.9628	   1.5704	        1.4676	          0.1027	   1.5704	        1.4676	1000000.0000	1.488e-02	2.264e+01	1.521e+03	1.544e+03	 1.0000	 0.0000	 0.0000	 0.0000	 1.00000	  15.8360	   1.0788	   0.4643	   0.0245	   0.5901	   0.2241	  14.5331	9.858e+02	1.272e-01	   4.600	 91134.540
242400	242400	 6.3693	 1.9635	   1.5707	        1.4676	          0.1031	   1.5707	        1.4676	1000000.0000	6.112e-02	9.297e+01	1.521e+03	1.614e+03	 1.0000	 0.0000	 0.0000	 0.0000	 1.00000	  60.9884	   1.0799	   0.4650	   0.0245	   0.5904	   0.2241	  59.6844	1.031e+03	1.272e-01	   2.875	 91562.267
243200	243200	 6.4193	 1.9642	   1.5709	        1.4676	          0.1032	   1.5709	        1.4676	1000000.0000	6.940e-02	1.056e+02	1.521e+03	1.627e+03	 1.0000	 0.0000	 0.0000	 0.0000	 1.00000	  69.0752	   1.0804	   0.4653	   0.0245	   0.5907	   0.2241	  67.7706	1.039e+03	1.272e-01	   4.795	 91912.717
244000	244000	 5.8089	 1.9635	   1.5702	        1.4676	          0.1025	   1.5702	        1.4676	1000000.0000	3.176e-02	4.832e+01	1.521e+03	1.473e+03	 1.0000	 0.0000	 0.0000	 0.0000	 1.00000	  32.3229	   1.0804	   0.4655	   0.0245	   0.5904	   0.2241	  31.0184	9.403e+02	1.272e-01	  10.666	 92216.319
244800	244800	 5.5996	 1.9630	   1.5699	        1.4676	          0.1023	   1.5699	        1.4676	1000000.0000	6.647e-02	1.011e+02	1.521e+03	1.420e+03	 1.0000	 0.0000	 0.0000	 0.0000	 1.00000	  66.2148	   1.0830	   0.4684	   0.0245	   0.5901	   0.2241	  64.9076	9.064e+02	1.272e-01	   3.651	 92623.828
245600	245600	 5.5392	 1.9627	   1.5698	        1.4676	          0.1022	   1.5698	        1.4676	1000000.0000	7.648e-02	1.163e+02	1.521e+03	1.405e+03	 1.0000	 0.0000	 0.0000	 0.0000	 1.00000	  75.9972	   1.0840	   0.4695	   0.0245	   0.5900	   0.2241	  74.6890	8.967e+02	1.272e-01	   8.289	 93098.465
246400	246400	 6.2413	 1.9634	   1.5706	        1.4676	          0.1029	   1.5706	        1.4676	1000000.0000	3.990e-02	6.070e+01	1.521e+03	1.582e+03	 1.0000	 0.0000	 0.0000	 0.0000	 1.00000	  40.2681	   1.0792	   0.4643	   0.0245	   0.5903	   0.2241	  38.9648	1.010e+03	1.272e-01	   5.048	 93410.415
247200	247200	 5.8647	 1.9629	   1.5702	        1.4676	          0.1025	   1.5702	        1.4676	1000000.0000	2.252e-02	3.426e+01	1.521e+03	1.487e+03	 1.0000	 0.0000	 0.0000	 0.0000	 1.00000	  23.2950	   1.0798	   0.4652	   0.0245	   0.5901	   0.2241	  21.9911	9.493e+02	1.272e-01	  10.472	 93850.354
248000	248000	 5.5705	 1.9615	   1.5697	        1.4676	          0.1021	   1.5697	        1.4676	1000000.0000	7.129e-02	1.085e+02	1.521e+03	1.413e+03	 1.0000	 0.0000	 0.0000	 0.0000	 1.00000	  70.9273	   1.0832	   0.4692	   0.0245	   0.5895	   0.2241	  69.6199	9.017e+02	1.272e-01	   4.257	 94161.596
248800	248800	 6.2293	 1.9617	   1.5704	        1.4676	          0.1027	   1.5704	        1.4676	1000000.0000	3.791e-02	5.767e+01	1.521e+03	1.579e+03	 1.0000	 0.0000	 0.0000	 0.0000	 1.00000	  38.3232	   1.0788	   0.4647	   0.0245	   0.5896	   0.2241	  37.0203	1.008e+03	1.272e-01	   3.420	 94496.136
249600	249600	 6.0870	 1.9621	   1.5703	        1.4676	          0.1026	   1.5703	        1.4676	1000000.0000	1.432e-02	2.178e+01	1.521e+03	1.543e+03	 1.0000	 0.0000	 0.0000	 0.0000	 1.00000	  15.2870	   1.0787	   0.4644	   0.0245	   0.5898	   0.2241	  13.9842	9.852e+02	1.272e-01	   5.272	 94813.706
250400	250400	 5.7374	 1.9611	   1.5698	        1.4676	          0.1022	   1.5698	        1.4676	1000000.0000	4.363e-02	6.637e+01	1.521e+03	1.455e+03	 1.0000	 0.0000	 0.0000	 0.0000	 1.00000	  43.9123	   1.0807	   0.4669	   0.0245	   0.5893	   0.2241	  42.6076	9.287e+02	1.272e-01	  10.397	 95219.831
251200	251200	 6.0690	 1.9612	   1.5701	        1.4676	          0.1025	   1.5701	        1.4676	1000000.0000	1.134e-02	1.724e+01	1.521e+03	1.539e+03	 1.0000	 0.0000	 0.0000	 0.0000	 1.00000	  12.3723	   1.0785	   0.4646	   0.0245	   0.5894	   0.2241	  11.0697	9.823e+02	1.272e-01	   3.857	 95495.840
252000	252000	 6.4370	 1.9616	   1.5706	        1.4676	          0.1029	   1.5706	        1.4676	1000000.0000	7.233e-02	1.100e+02	1.521e+03	1.631e+03	 1.0000	 0.0000	 0.0000	 0.0000	 1.00000	  71.9368	   1.0801	   0.4660	   0.0245	   0.5895	   0.2241	  70.6326	1.042e+03	1.272e-01	   5.198	 95751.927
252800	252800	 6.4926	 1.9621	   1.5707	        1.4676	          0.1030	   1.5707	        1.4676	1000000.0000	8.154e-02	1.241e+02	1.521e+03	1.645e+03	 1.0000	 0.0000	 0.0000	 0.0000	 1.00000	  80.9382	   1.0807	   0.4665	   0.0245	   0.5897	   0.2241	  79.6334	1.051e+03	1.272e-01	   5.948	 96134.999
253600	253600	 5.7523	 1.9622	   1.5700	        1.4676	          0.1023	   1.5700	        1.4676	1000000.0000	4.115e-02	6.260e+01	1.521e+03	1.459e+03	 1.0000	 0.0000	 0.0000	 0.0000	 1.00000	  41.4900	   1.0807	   0.4664	   0.0245	   0.5898	   0.2241	  40.1852	9.311e+02	1.272e-01	   8.701	 96495.581
254400	254400	 5.6432	 1.9617	   1.5698	        1.4676	          0.1022	   1.5698	        1.4676	1000000.0000	5.923e-02	9.011e+01	1.521e+03	1.431e+03	 1.0000	 0.0000	 0.0000	 0.0000	 1.00000	  59.1505	   1.0821	   0.4680	   0.0245	   0.5896	   0.2241	  57.8444	9.135e+02	1.272e-01	   9.457	 96838.469
255200	255200	 6.3600	 1.9611	   1.5704	        1.4676	          0.1028	   1.5704	        1.4676	1000000.0000	5.956e-02	9.061e+01	1.521e+03	1.612e+03	 1.0000	 0.0000	 0.0000	 0.0000	 1.00000	  59.4682	   1.0793	   0.4655	   0.0245	   0.5893	   0.2241	  58.1647	1.029e+03	1.272e-01	  12.371	 97153.569
256000	256000	 6.0080	 1.9621	   1.5702	        1.4676	          0.1025	   1.5702	        1.4676	1000000.0000	1.235e-03	1.879e+00	1.521e+03	1.523e+03	 1.0000	 0.0000	 0.0000	 0.0000	 1.00000	   2.5094	   1.0788	   0.4646	   0.0245	   0.5898	   0.2241	   1.2065	9.707e+02	1.272e-01	   4.982	 97497.219
256800	256800	 5.7892	 1.9614	   1.5699	        1.4676	          0.1022	   1.5699	        1.4676	1000000.0000	3.504e-02	5.330e+01	1.521e+03	1.468e+03	 1.0000	 0.0000	 0.0000	 0.0000	 1.00000	  35.5186	   1.0802	   0.4662	   0.0245	   0.5894	   0.2241	  34.2144	9.371e+02	1.272e-01	   5.051	 97816.953
257600	257600	 5.8731	 1.9626	   1.5701	        1.4676	          0.1025	   1.5701	        1.4676	1000000.0000	2.113e-02	3.215e+01	1.521e+03	1.489e+03	 1.0000	 0.0000	 0.0000	 0.0000	 1.00000	  21.9432	   1.0797	   0.4652	   0.0245	   0.5900	   0.2241	  20.6395	9.507e+02	1.272e-01	   3.040	 98184.192
258400	258400	 6.1712	 1.9617	   1.5703	        1.4676	          0.1027	   1.5703	        1.4676	1000000.0000	2.828e-02	4.302e+01	1.521e+03	1.564e+03	 1.0000	 0.0000	 0.0000	 0.0000	 1.00000	  28.9170	   1.0786	   0.4645	   0.0245	   0.5896	   0.2240	  27.6143	9.989e+02	1.272e-01	  12.050	 98551.280
259200	259200	 5.5006	 1.9614	   1.5696	        1.4676	          0.1020	   1.5696	        1.4676	1000000.0000	8.287e-02	1.261e+02	1.521e+03	1.395e+03	 1.0000	 0.0000	 0.0000	 0.0000	 1.00000	  82.2369	   1.0845	   0.4706	   0.0245	   0.5895	   0.2240	  80.9284	8.904e+02	1.272e-01	  11.935	 98899.212
260000	260000	 6.2910	 1.9617	   1.5704	        1.4676	          0.1028	   1.5704	        1.4676	1000000.0000	4.813e-02	7.323e+01	1.521e+03	1.594e+03	 1.0000	 0.0000	 0.0000	 0.0000	 1.00000	  48.3097	   1.0790	   0.4650	   0.0245	   0.5896	   0.2240	  47.0066	1.018e+03	1.272e-01	   3.422	 99162.879
260800	260800	 5.4618	 1.9609	   1.5695	        1.4676	          0.1019	   1.5695	        1.4676	1000000.0000	8.931e-02	1.359e+02	1.521e+03	1.385e+03	 1.0000	 0.0000	 0.0000	 0.0000	 1.00000	  88.5261	   1.0852	   0.4715	   0.0245	   0.5892	   0.2240	  87.2168	8.842e+02	1.272e-01	  12.311	 99470.160
261600	261600	 5.5460	 1.9606	   1.5696	        1.4676	          0.1019	   1.5696	        1.4676	1000000.0000	7.535e-02	1.146e+02	1.521e+03	1.407e+03	 1.0000	 0.0000	 0.0000	 0.0000	 1.00000	  74.8953	   1.0835	   0.4699	   0.0245	   0.5891	   0.2240	  73.5878	8.978e+02	1.272e-01	   7.201	 99793.742
262400	262400	 6.0808	 1.9604	   1.5701	        1.4676	          0.1024	   1.5701	        1.4676	1000000.0000	1.329e-02	2.021e+01	1.521e+03	1.541e+03	 1.0000	 0.0000	 0.0000	 0.0000	 1.00000	  14.2767	   1.0783	   0.4648	   0.0245	   0.5890	   0.2240	  12.9743	9.842e+02	1.272e-01	   3.127	100065.137
263200	263200	 5.8266	 1.9612	   1.5699	        1.4676	          0.1023	   1.5699	        1.4676	1000000.0000	2.885e-02	4.388e+01	1.521e+03	1.477e+03	 1.0000	 0.0000	 0.0000	 0.0000	 1.00000	  29.4730	   1.0798	   0.4659	   0.0245	   0.5893	   0.2240	  28.1692	9.431e+02	1.272e-01	   8.129	100430.148
264000	264000	 6.2320	 1.9612	   1.5703	        1.4676	          0.1027	   1.5703	        1.4676	1000000.0000	3.835e-02	5.833e+01	1.521e+03	1.580e+03	 1.0000	 0.0000	 0.0000	 0.0000	 1.00000	  38.7491	   1.0787	   0.4648	   0.0245	   0.5893	   0.2240	  37.4464	1.009e+03	1.272e-01	   3.958	100725.540
264800	264800	 6.0673	 1.9614	   1.5702	        1.4676	          0.1025	   1.5702	        1.4676	1000000.0000	1.106e-02	1.683e+01	1.521e+03	1.538e+03	 1.0000	 0.0000	 0.0000	 0.0000	 1.00000	  12.1034	   1.0786	   0.4646	   0.0245	   0.5895	   0.2240	  10.8008	9.820e+02	1.272e-01	   6.669	101016.794
265600	265600	 6.3131	 1.9613	   1.5704	        1.4676	          0.1028	   1.5704	        1.4676	1000000.0000	5.179e-02	7.878e+01	1.521e+03	1.600e+03	 1.0000	 0.0000	 0.0000	 0.0000	 1.00000	  51.8763	   1.0791	   0.4652	   0.0245	   0.5894	   0.2240	  50.5732	1.022e+03	1.272e-01	   6.760	101314.631
266400	266400	 5.7474	 1.9612	   1.5698	        1.4676	          0.1022	   1.5698	        1.4676	1000000.0000	4.197e-02	6.385e+01	1.521e+03	1.457e+03	 1.0000	 0.0000	 0.0000	 0.0000	 1.00000	  42.2949	   1.0806	   0.4667	   0.0245	   0.5894	   0.2240	  40.9903	9.303e+02	1.272e-01	   4.076	101605.391
267200	267200	 5.4620	 1.9609	   1.5695	        1.4676	          0.1019	   1.5695	        1.4676	1000000.0000	8.928e-02	1.358e+02	1.521e+03	1.385e+03	 1.0000	 0.0000	 0.0000	 0.0000	 1.00000	  88.4924	   1.0852	   0.4715	   0.0245	   0.5892	   0.2240	  87.1832	8.842e+02	1.272e-01	   5.433	101882.750
268000	268000	 6.0033	 1.9610	   1.5700	        1.4676	          0.1024	   1.5700	        1.4676	1000000.0000	4.436e-04	6.748e-01	1.521e+03	1.522e+03	 1.0000	 0.0000	 0.0000	 0.0000	 1.00000	   1.7358	   1.0786	   0.4649	   0.0245	   0.5893	   0.2240	   0.4332	9.586e+02	1.272e-01	   5.022	102147.101
268800	268800	 5.6817	 1.9603	   1.5697	        1.4676	          0.1020	   1.5697	        1.4676	1000000.0000	5.286e-02	8.041e+01	1.521e+03	1.441e+03	 1.0000	 0.0000	 0.0000	 0.0000	 1.00000	  52.9251	   1.0812	   0.4678	   0.0245	   0.5890	   0.2240	  51.6198	9.197e+02	1.272e-01	   2.841	102461.125
269600	269600	 5.4941	 1.9599	   1.5694	        1.4676	          0.1018	   1.5694	        1.4676	1000000.0000	8.396e-02	1.277e+02	1.521e+03	1.394e+03	 1.0000	 0.0000	 0.0000	 0.0000	 1.00000	  83.3019	   1.0843	   0.4710	   0.0245	   0.5888	   0.2240	  81.9935	8.894e+02	1.272e-01	   5.147	102722.798
270400	270400	 6.5175	 1.9615	   1.5706	        1.4676	          0.1030	   1.5706	        1.4676	1000000.0000	8.568e-02	1.303e+02	1.521e+03	1.652e+03	 1.0000	 0.0000	 0.0000	 0.0000	 1.00000	  84.9735	   1.0809	   0.4669	   0.0245	   0.5895	   0.2240	  83.6686	1.055e+03	1.272e-01	   8.651	103004.296
271200	271200	 5.9615	 1.9603	   1.5699	        1.4676	          0.1023	   1.5699	        1.4676	1000000.0000	6.489e-03	9.872e+00	1.521e+03	1.511e+03	 1.0000	 0.0000	 0.0000	 0.0000	 1.00000	   7.6400	   1.0787	   0.4652	   0.0245	   0.5890	   0.2240	   6.3374	9.649e+02	1.272e-01	   4.437	103331.522
272000	272000	 6.4901	 1.9601	   1.5704	        1.4676	          0.1028	   1.5704	        1.4676	1000000.0000	8.113e-02	1.234e+02	1.521e+03	1.645e+03	 1.0000	 0.0000	 0.0000	 0.0000	 1.00000	  80.5356	   1.0803	   0.4669	   0.0245	   0.5889	   0.2240	  79.2314	1.051e+03	1.272e-01	   5.440	103618.044
272800	272800	 5.9549	 1.9597	   1.5698	        1.4676	          0.1022	   1.5698	        1.4676	1000000.0000	7.574e-03	1.152e+01	1.521e+03	1.510e+03	 1.0000	 0.0000	 0.0000	 0.0000	 1.00000	   8.6992	   1.0786	   0.4654	   0.0245	   0.5887	   0.2240	   7.3966	9.638e+02	1.272e-01	   4.464	103919.212
273600	273600	 6.3717	 1.9608	   1.5704	        1.4676	          0.1027	   1.5704	        1.4676	1000000.0000	6.150e-02	9.355e+01	1.521e+03	1.615e+03	 1.0000	 0.0000	 0.0000	 0.0000	 1.00000	  61.3601	   1.0794	   0.4657	   0.0245	   0.5892	   0.2240	  60.0568	1.031e+03	1.272e-01	   6.059	104210.755
274400	274400	 5.5835	 1.9591	   1.5694	        1.4676	          0.1018	   1.5694	        1.4676	1000000.0000	6.913e-02	1.052e+02	1.521e+03	1.416e+03	 1.0000	 0.0000	 0.0000	 0.0000	 1.00000	  68.8189	   1.0825	   0.4696	   0.0245	   0.5884	   0.2240	  67.5124	9.038e+02	1.272e-01	   4.594	104505.661
275200	275200	 5.7664	 1.9600	   1.5697	        1.4676	          0.1020	   1.5697	        1.4676	1000000.0000	3.883e-02	5.907e+01	1.521e+03	1.462e+03	 1.0000	 0.0000	 0.0000	 0.0000	 1.00000	  39.2255	   1.0801	   0.4668	   0.0245	   0.5888	   0.2240	  37.9214	9.334e+02	1.272e-01	   6.674	104815.057
276000	276000	 5.7355	 1.9597	   1.5696	        1.4676	          0.1020	   1.5696	        1.4676	1000000.0000	4.395e-02	6.686e+01	1.521e+03	1.454e+03	 1.0000	 0.0000	 0.0000	 0.0000	 1.00000	  44.2217	   1.0804	   0.4672	   0.0245	   0.5887	   0.2240	  42.9173	9.284e+02	1.272e-01	   6.890	105161.527
276800	276800	 6.1324	 1.9597	   1.5700	        1.4676	          0.1024	   1.5700	        1.4676	1000000.0000	2.184e-02	3.322e+01	1.521e+03	1.554e+03	 1.0000	 0.0000	 0.0000	 0.0000	 1.00000	  22.6272	   1.0782	   0.4650	   0.0245	   0.5887	   0.2240	  21.3250	9.926e+02	1.272e-01	   4.008	105447.478
277600	277600	 6.5622	 1.9599	   1.5705	        1.4676	          0.1028	   1.5705	        1.4676	1000000.0000	9.307e-02	1.416e+02	1.521e+03	1.663e+03	 1.0000	 0.0000	 0.0000	 0.0000	 1.00000	  92.1946	   1.0811	   0.4678	   0.0245	   0.5888	   0.2240	  90.8895	1.062e+03	1.272e-01	   5.114	105747.298
278400	278400	 6.1109	 1.9593	   1.5699	        1.4676	          0.1023	   1.5699	        1.4676	1000000.0000	1.828e-02	2.781e+01	1.521e+03	1.549e+03	 1.0000	 0.0000	 0.0000	 0.0000	 1.00000	  19.1538	   1.0781	   0.4651	   0.0245	   0.5885	   0.2239	  17.8518	9.891e+02	1.272e-01	   6.310	106051.533
279200	279200	 5.7529	 1.9590	   1.5696	        1.4676	          0.1019	   1.5696	        1.4676	1000000.0000	4.106e-02	6.247e+01	1.521e+03	1.459e+03	 1.0000	 0.0000	 0.0000	 0.0000	 1.00000	  41.4054	   1.0801	   0.4672	   0.0245	   0.5884	   0.2239	  40.1014	9.312e+02	1.272e-01	   6.871	106347.117
280000	280000	 5.6338	 1.9595	   1.5695	        1.4676	          0.1019	   1.5695	        1.4676	1000000.0000	6.080e-02	9.249e+01	1.521e+03	1.429e+03	 1.0000	 0.0000	 0.0000	 0.0000	 1.00000	  60.6804	   1.0818	   0.4687	   0.0245	   0.5886	   0.2239	  59.3747	9.120e+02	1.272e-01	   6.398	106646.865
280800	280800	 6.1725	 1.9590	   1.5700	        1.4676	          0.1023	   1.5700	        1.4676	1000000.0000	2.848e-02	4.333e+01	1.521e+03	1.565e+03	 1.0000	 0.0000	 0.0000	 0.0000	 1.00000	  29.1181	   1.0781	   0.4652	   0.0245	   0.5884	   0.2239	  27.8161	9.991e+02	1.272e-01	   6.126	106949.923
281600	281600	 5.5472	 1.9591	   1.5694	        1.4676	          0.1017	   1.5694	        1.4676	1000000.0000	7.515e-02	1.143e+02	1.521e+03	1.407e+03	 1.0000	 0.0000	 0.0000	 0.0000	 1.00000	  74.6957	   1.0831	   0.4702	   0.0245	   0.5884	   0.2239	  73.3887	8.980e+02	1.272e-01	   5.642	107242.836
282400	282400	 6.6022	 1.9591	   1.5704	        1.4676	          0.1028	   1.5704	        1.4676	1000000.0000	9.970e-02	1.517e+02	1.521e+03	1.673e+03	 1.0000	 0.0000	 0.0000	 0.0000	 1.00000	  98.6724	   1.0815	   0.4685	   0.0245	   0.5884	   0.2239	  97.3669	1.069e+03	1.272e-01	   7.451	107537.630
283200	283200	 6.3576	 1.9588	   1.5701	        1.4676	          0.1025	   1.5701	        1.4676	1000000.0000	5.916e-02	9.000e+01	1.521e+03	1.611e+03	 1.0000	 0.0000	 0.0000	 0.0000	 1.00000	  59.0785	   1.0788	   0.4661	   0.0245	   0.5883	   0.2239	  57.7757	1.029e+03	1.272e-01	   6.672	107826.052
284000	284000	 6.4244	 1.9585	   1.5702	        1.4676	          0.1025	   1.5702	        1.4676	1000000.0000	7.024e-02	1.068e+02	1.521e+03	1.628e+03	 1.0000	 0.0000	 0.0000	 0.0000	 1.00000	  69.8942	   1.0793	   0.4667	   0.0245	   0.5882	   0.2239	  68.5909	1.040e+03	1.272e-01	   5.681	108133.997
284800	284800	 6.4873	 1.9591	   1.5703	        1.4676	          0.1027	   1.5703	        1.4676	1000000.0000	8.066e-02	1.227e+02	1.521e+03	1.644e+03	 1.0000	 0.0000	 0.0000	 0.0000	 1.00000	  80.0704	   1.0801	   0.4671	   0.0245	   0.5884	   0.2239	  78.7665	1.050e+03	1.272e-01	   6.492	108443.114
285600	285600	 6.2946	 1.9588	   1.5701	        1.4676	          0.1024	   1.5701	        1.4676	1000000.0000	4.872e-02	7.412e+01	1.521e+03	1.595e+03	 1.0000	 0.0000	 0.0000	 0.0000	 1.00000	  48.8804	   1.0785	   0.4657	   0.0245	   0.5883	   0.2239	  47.5781	1.019e+03	1.272e-01	   5.296	108754.941
286400	286400	 6.3599	 1.9588	   1.5701	        1.4676	          0.1025	   1.5701	        1.4676	1000000.0000	5.954e-02	9.057e+01	1.521e+03	1.612e+03	 1.0000	 0.0000	 0.0000	 0.0000	 1.00000	  59.4428	   1.0789	   0.4661	   0.0245	   0.5883	   0.2239	  58.1400	1.029e+03	1.272e-01	   5.524	109059.430
287200	287200	 5.6330	 1.9588	   1.5694	        1.4676	          0.1018	   1.5694	        1.4676	1000000.0000	6.094e-02	9.270e+01	1.521e+03	1.429e+03	 1.0000	 0.0000	 0.0000	 0.0000	 1.00000	  60.8136	   1.0816	   0.4688	   0.0245	   0.5883	   0.2239	  59.5081	9.118e+02	1.272e-01	   6.576	109346.062
288000	288000	 6.1982	 1.9593	   1.5700	        1.4676	          0.1024	   1.5700	        1.4676	1000000.0000	3.275e-02	4.981e+01	1.521e+03	1.571e+03	 1.0000	 0.0000	 0.0000	 0.0000	 1.00000	  33.2799	   1.0782	   0.4652	   0.0245	   0.5885	   0.2239	  31.9778	1.003e+03	1.272e-01	   5.577	109627.723
288800	288800	 6.0655	 1.9581	   1.5697	        1.4676	          0.1021	   1.5697	        1.4676	1000000.0000	1.074e-02	1.634e+01	1.521e+03	1.538e+03	 1.0000	 0.0000	 0.0000	 0.0000	 1.00000	  11.7902	   1.0779	   0.4654	   0.0245	   0.5880	   0.2239	  10.4884	9.817e+02	1.272e-01	   4.842	109923.338
289600	289600	 5.7498	 1.9575	   1.5694	        1.4676	          0.1017	   1.5694	        1.4676	1000000.0000	4.159e-02	6.327e+01	1.521e+03	1.458e+03	 1.0000	 0.0000	 0.0000	 0.0000	 1.00000	  41.9186	   1.0798	   0.4676	   0.0245	   0.5877	   0.2239	  40.6149	9.307e+02	1.272e-01	   6.060	110219.157
290400	290400	 5.9192	 1.9578	   1.5696	        1.4676	          0.1019	   1.5696	        1.4676	1000000.0000	1.350e-02	2.054e+01	1.521e+03	1.501e+03	 1.0000	 0.0000	 0.0000	 0.0000	 1.00000	  14.4887	   1.0784	   0.4660	   0.0245	   0.5878	   0.2239	  13.1865	9.581e+02	1.272e-01	   5.919	110503.501