[GPU 7][JOB 8] 'python cli.py minimax --n 1024 --lengthscale 0.5 --sigma-f2-true 4.0 --sigma-eps2-true 1.0 --n-epochs 2000000 --print-every 800 --device auto --kernel-mode finite --a 1.e-4 --b 40e-3 --w-init-scale 0.001 --num-features 128 --mu-increase-factor 1.0 --mu-increase-epochs 0 --mu 1.e6 --lr-decay 1.0 --lr-decay-every-epochs 0 --seed 3 --batch-size 1024 --sigma-f2-init 6.0  --sigma-eps2-init 2.0 --penalty-normalization relative     --real-psi-if-full-batch '
[CLI] Using torch default dtype torch.float64.

=== MINIMAX + ORF (TMLR) ===  ψ = (g(θ) + log|A| + μ‖A-F‖/‖A‖)/n
iter	epoch	σ_f²	σ_ε²	real_nlml	real_nlml_true	real_nlml_abs_err	orf_nlml	orf_nlml_true	μ	|A-F|/|A|	|A-F|		|A|		|F|		cosAF	|B|	cosBΔ	pen/pen*	lr_scale	ψ_real	g(θ)/n		‖Φw-y‖²/(nσ_ε²)	‖w‖²/n	((n-d)logσ_ε²)/n	(log|A|)/n	μ‖A-F‖/‖A‖/n	||grad_psi_real||	||grad||	duration_s	wall_time_s
 800	800	 6.1265	 1.9960	   1.5985	        1.5165	          0.0819	   1.5985	        1.5165	1000000.0000	2.095e-02	3.221e+01	1.537e+03	1.569e+03	 1.0000	 0.0000	 0.0000	 0.0000	 1.00000	  21.8192	   1.1335	   0.5094	   0.0194	   0.6048	   0.2252	  20.4605	9.918e+02	1.137e-01	   5.882	   318.434
1600	1600	 5.6544	 1.9927	   1.5974	        1.5165	          0.0809	   1.5974	        1.5165	1000000.0000	5.732e-02	8.810e+01	1.537e+03	1.449e+03	 1.0000	 0.0000	 0.0000	 0.0000	 1.00000	  57.3333	   1.1357	   0.5131	   0.0194	   0.6033	   0.2252	  55.9723	9.154e+02	1.137e-01	   5.281	   631.234
2400	2400	 5.7987	 1.9917	   1.5975	        1.5165	          0.0810	   1.5975	        1.5165	1000000.0000	3.339e-02	5.133e+01	1.537e+03	1.486e+03	 1.0000	 0.0000	 0.0000	 0.0000	 1.00000	  33.9705	   1.1341	   0.5119	   0.0194	   0.6028	   0.2252	  32.6112	9.388e+02	1.137e-01	   5.029	   950.980
3200	3200	 5.6412	 1.9911	   1.5972	        1.5165	          0.0807	   1.5972	        1.5165	1000000.0000	5.951e-02	9.147e+01	1.537e+03	1.446e+03	 1.0000	 0.0000	 0.0000	 0.0000	 1.00000	  59.4724	   1.1356	   0.5136	   0.0194	   0.6026	   0.2252	  58.1117	9.133e+02	1.137e-01	   7.001	  1244.673
4000	4000	 6.4625	 1.9917	   1.5985	        1.5165	          0.0819	   1.5985	        1.5165	1000000.0000	7.665e-02	1.178e+02	1.537e+03	1.655e+03	 1.0000	 0.0000	 0.0000	 0.0000	 1.00000	  76.2140	   1.1340	   0.5117	   0.0194	   0.6029	   0.2252	  74.8548	1.046e+03	1.137e-01	   5.426	  1558.610
4800	4800	 6.3057	 1.9913	   1.5982	        1.5165	          0.0817	   1.5982	        1.5165	1000000.0000	5.066e-02	7.787e+01	1.537e+03	1.615e+03	 1.0000	 0.0000	 0.0000	 0.0000	 1.00000	  50.8264	   1.1330	   0.5109	   0.0194	   0.6027	   0.2252	  49.4683	1.021e+03	1.137e-01	   4.894	  1877.496
5600	5600	 5.8182	 1.9904	   1.5974	        1.5165	          0.0808	   1.5974	        1.5165	1000000.0000	3.017e-02	4.638e+01	1.537e+03	1.491e+03	 1.0000	 0.0000	 0.0000	 0.0000	 1.00000	  30.8212	   1.1337	   0.5120	   0.0194	   0.6023	   0.2252	  29.4623	9.419e+02	1.137e-01	   6.219	  2186.411
6400	6400	 6.4909	 1.9912	   1.5985	        1.5165	          0.0819	   1.5985	        1.5165	1000000.0000	8.135e-02	1.251e+02	1.537e+03	1.662e+03	 1.0000	 0.0000	 0.0000	 0.0000	 1.00000	  80.8043	   1.1341	   0.5121	   0.0194	   0.6027	   0.2252	  79.4450	1.051e+03	1.136e-01	   6.625	  2481.735
7200	7200	 5.5946	 1.9910	   1.5971	        1.5165	          0.0806	   1.5971	        1.5165	1000000.0000	6.723e-02	1.033e+02	1.537e+03	1.434e+03	 1.0000	 0.0000	 0.0000	 0.0000	 1.00000	  67.0150	   1.1362	   0.5142	   0.0194	   0.6025	   0.2252	  65.6537	9.058e+02	1.137e-01	   4.513	  2790.713
8000	8000	 5.5457	 1.9911	   1.5971	        1.5165	          0.0806	   1.5971	        1.5165	1000000.0000	7.533e-02	1.158e+02	1.537e+03	1.421e+03	 1.0000	 0.0000	 0.0000	 0.0000	 1.00000	  74.9242	   1.1369	   0.5149	   0.0194	   0.6026	   0.2252	  73.5621	8.979e+02	1.137e-01	   5.222	  3103.132
8800	8800	 5.7958	 1.9915	   1.5975	        1.5165	          0.0809	   1.5975	        1.5165	1000000.0000	3.388e-02	5.208e+01	1.537e+03	1.485e+03	 1.0000	 0.0000	 0.0000	 0.0000	 1.00000	  34.4448	   1.1340	   0.5119	   0.0194	   0.6028	   0.2252	  33.0856	9.383e+02	1.137e-01	   8.986	  3395.616
9600	9600	 6.1672	 1.9910	   1.5980	        1.5165	          0.0814	   1.5980	        1.5165	1000000.0000	2.770e-02	4.258e+01	1.537e+03	1.580e+03	 1.0000	 0.0000	 0.0000	 0.0000	 1.00000	  28.4069	   1.1326	   0.5107	   0.0194	   0.6026	   0.2252	  27.0492	9.984e+02	1.137e-01	   5.879	  3708.900
10400	10400	 6.2950	 1.9908	   1.5981	        1.5165	          0.0816	   1.5981	        1.5165	1000000.0000	4.888e-02	7.514e+01	1.537e+03	1.612e+03	 1.0000	 0.0000	 0.0000	 0.0000	 1.00000	  49.0939	   1.1329	   0.5110	   0.0194	   0.6025	   0.2251	  47.7359	1.019e+03	1.136e-01	   5.723	  4014.941
11200	11200	 6.1693	 1.9902	   1.5979	        1.5165	          0.0813	   1.5979	        1.5165	1000000.0000	2.804e-02	4.310e+01	1.537e+03	1.580e+03	 1.0000	 0.0000	 0.0000	 0.0000	 1.00000	  28.7369	   1.1325	   0.5109	   0.0194	   0.6022	   0.2251	  27.3793	9.987e+02	1.136e-01	   9.583	  4334.932
12000	12000	 5.6305	 1.9901	   1.5971	        1.5165	          0.0806	   1.5971	        1.5165	1000000.0000	6.128e-02	9.420e+01	1.537e+03	1.443e+03	 1.0000	 0.0000	 0.0000	 0.0000	 1.00000	  61.2064	   1.1355	   0.5140	   0.0194	   0.6022	   0.2251	  59.8457	9.116e+02	1.137e-01	   9.455	  4649.723
12800	12800	 6.2931	 1.9916	   1.5982	        1.5165	          0.0817	   1.5982	        1.5165	1000000.0000	4.856e-02	7.465e+01	1.537e+03	1.612e+03	 1.0000	 0.0000	 0.0000	 0.0000	 1.00000	  48.7826	   1.1330	   0.5108	   0.0194	   0.6028	   0.2251	  47.4244	1.019e+03	1.137e-01	   5.708	  4967.940
13600	13600	 5.8637	 1.9908	   1.5975	        1.5165	          0.0810	   1.5975	        1.5165	1000000.0000	2.262e-02	3.477e+01	1.537e+03	1.502e+03	 1.0000	 0.0000	 0.0000	 0.0000	 1.00000	  23.4481	   1.1334	   0.5116	   0.0194	   0.6025	   0.2251	  22.0895	9.493e+02	1.137e-01	   6.404	  5262.044
14400	14400	 6.5729	 1.9908	   1.5985	        1.5165	          0.0820	   1.5985	        1.5165	1000000.0000	9.495e-02	1.460e+02	1.537e+03	1.683e+03	 1.0000	 0.0000	 0.0000	 0.0000	 1.00000	  94.0852	   1.1348	   0.5130	   0.0194	   0.6025	   0.2251	  92.7252	1.064e+03	1.136e-01	   6.867	  5568.792
15200	15200	 5.5811	 1.9904	   1.5971	        1.5165	          0.0805	   1.5971	        1.5165	1000000.0000	6.946e-02	1.068e+02	1.537e+03	1.430e+03	 1.0000	 0.0000	 0.0000	 0.0000	 1.00000	  69.1940	   1.1362	   0.5145	   0.0194	   0.6023	   0.2251	  67.8326	9.036e+02	1.137e-01	   5.374	  5858.538
16000	16000	 5.5438	 1.9902	   1.5970	        1.5165	          0.0804	   1.5970	        1.5165	1000000.0000	7.566e-02	1.163e+02	1.537e+03	1.421e+03	 1.0000	 0.0000	 0.0000	 0.0000	 1.00000	  75.2437	   1.1367	   0.5151	   0.0194	   0.6022	   0.2251	  73.8819	8.976e+02	1.137e-01	   6.084	  6154.434
16800	16800	 6.4235	 1.9905	   1.5983	        1.5165	          0.0817	   1.5983	        1.5165	1000000.0000	7.018e-02	1.079e+02	1.537e+03	1.645e+03	 1.0000	 0.0000	 0.0000	 0.0000	 1.00000	  69.8927	   1.1335	   0.5118	   0.0194	   0.6023	   0.2251	  68.5341	1.040e+03	1.136e-01	   5.817	  6470.457
17600	17600	 6.2419	 1.9902	   1.5980	        1.5165	          0.0814	   1.5980	        1.5165	1000000.0000	4.007e-02	6.160e+01	1.537e+03	1.599e+03	 1.0000	 0.0000	 0.0000	 0.0000	 1.00000	  40.4902	   1.1326	   0.5110	   0.0194	   0.6022	   0.2251	  39.1324	1.010e+03	1.136e-01	   6.622	  6780.302
18400	18400	 6.5609	 1.9899	   1.5984	        1.5165	          0.0819	   1.5984	        1.5165	1000000.0000	9.296e-02	1.429e+02	1.537e+03	1.680e+03	 1.0000	 0.0000	 0.0000	 0.0000	 1.00000	  92.1442	   1.1346	   0.5131	   0.0194	   0.6021	   0.2251	  90.7845	1.062e+03	1.136e-01	   5.050	  7078.453
19200	19200	 5.7848	 1.9893	   1.5972	        1.5165	          0.0807	   1.5972	        1.5165	1000000.0000	3.570e-02	5.487e+01	1.537e+03	1.482e+03	 1.0000	 0.0000	 0.0000	 0.0000	 1.00000	  36.2198	   1.1337	   0.5125	   0.0194	   0.6018	   0.2251	  34.8610	9.365e+02	1.136e-01	   5.932	  7403.815
20000	20000	 5.4969	 1.9887	   1.5968	        1.5165	          0.0802	   1.5968	        1.5165	1000000.0000	8.342e-02	1.282e+02	1.537e+03	1.409e+03	 1.0000	 0.0000	 0.0000	 0.0000	 1.00000	  82.8296	   1.1371	   0.5162	   0.0194	   0.6015	   0.2251	  81.4673	8.900e+02	1.136e-01	   6.078	  7695.817
20800	20800	 6.1692	 1.9893	   1.5978	        1.5165	          0.0812	   1.5978	        1.5165	1000000.0000	2.802e-02	4.307e+01	1.537e+03	1.580e+03	 1.0000	 0.0000	 0.0000	 0.0000	 1.00000	  28.7191	   1.1323	   0.5111	   0.0194	   0.6018	   0.2251	  27.3617	9.987e+02	1.136e-01	   4.472	  8029.952
21600	21600	 6.2934	 1.9890	   1.5979	        1.5165	          0.0814	   1.5979	        1.5165	1000000.0000	4.860e-02	7.471e+01	1.537e+03	1.612e+03	 1.0000	 0.0000	 0.0000	 0.0000	 1.00000	  48.8193	   1.1326	   0.5115	   0.0194	   0.6017	   0.2251	  47.4617	1.019e+03	1.136e-01	   5.728	  8336.990
22400	22400	 6.2276	 1.9890	   1.5978	        1.5165	          0.0813	   1.5978	        1.5165	1000000.0000	3.770e-02	5.795e+01	1.537e+03	1.595e+03	 1.0000	 0.0000	 0.0000	 0.0000	 1.00000	  38.1755	   1.1324	   0.5113	   0.0194	   0.6017	   0.2251	  36.8181	1.008e+03	1.136e-01	   4.779	  8633.424
23200	23200	 5.6840	 1.9896	   1.5971	        1.5165	          0.0806	   1.5971	        1.5165	1000000.0000	5.241e-02	8.056e+01	1.537e+03	1.457e+03	 1.0000	 0.0000	 0.0000	 0.0000	 1.00000	  52.5405	   1.1347	   0.5134	   0.0194	   0.6019	   0.2251	  51.1807	9.202e+02	1.136e-01	   5.805	  8949.493
24000	24000	 5.7517	 1.9892	   1.5972	        1.5165	          0.0806	   1.5972	        1.5165	1000000.0000	4.120e-02	6.333e+01	1.537e+03	1.474e+03	 1.0000	 0.0000	 0.0000	 0.0000	 1.00000	  41.5908	   1.1340	   0.5128	   0.0194	   0.6018	   0.2251	  40.2317	9.312e+02	1.136e-01	   6.058	  9263.657
24800	24800	 6.1114	 1.9898	   1.5978	        1.5165	          0.0812	   1.5978	        1.5165	1000000.0000	1.843e-02	2.834e+01	1.537e+03	1.566e+03	 1.0000	 0.0000	 0.0000	 0.0000	 1.00000	  19.3590	   1.1324	   0.5110	   0.0194	   0.6020	   0.2251	  18.0015	9.893e+02	1.136e-01	   8.791	  9593.747
25600	25600	 5.9626	 1.9894	   1.5975	        1.5165	          0.0810	   1.5975	        1.5165	1000000.0000	6.232e-03	9.580e+00	1.537e+03	1.528e+03	 1.0000	 0.0000	 0.0000	 0.0000	 1.00000	   7.4439	   1.1326	   0.5114	   0.0194	   0.6019	   0.2251	   6.0862	9.652e+02	1.136e-01	   6.486	  9893.055
26400	26400	 5.6904	 1.9894	   1.5971	        1.5165	          0.0806	   1.5971	        1.5165	1000000.0000	5.135e-02	7.894e+01	1.537e+03	1.458e+03	 1.0000	 0.0000	 0.0000	 0.0000	 1.00000	  51.5086	   1.1346	   0.5134	   0.0194	   0.6019	   0.2251	  50.1489	9.213e+02	1.136e-01	   5.289	 10210.932
27200	27200	 5.7860	 1.9893	   1.5972	        1.5165	          0.0807	   1.5972	        1.5165	1000000.0000	3.550e-02	5.457e+01	1.537e+03	1.483e+03	 1.0000	 0.0000	 0.0000	 0.0000	 1.00000	  36.0265	   1.1337	   0.5125	   0.0194	   0.6018	   0.2251	  34.6677	9.367e+02	1.136e-01	   5.860	 10510.258
28000	28000	 5.5461	 1.9887	   1.5968	        1.5165	          0.0803	   1.5968	        1.5165	1000000.0000	7.527e-02	1.157e+02	1.537e+03	1.421e+03	 1.0000	 0.0000	 0.0000	 0.0000	 1.00000	  74.8705	   1.1364	   0.5154	   0.0194	   0.6016	   0.2251	  73.5090	8.979e+02	1.136e-01	   5.376	 10841.026
28800	28800	 6.0569	 1.9886	   1.5975	        1.5165	          0.0810	   1.5975	        1.5165	1000000.0000	9.399e-03	1.445e+01	1.537e+03	1.552e+03	 1.0000	 0.0000	 0.0000	 0.0000	 1.00000	  10.5365	   1.1322	   0.5113	   0.0194	   0.6015	   0.2251	   9.1792	9.805e+02	1.136e-01	   5.585	 11147.793
29600	29600	 6.3589	 1.9894	   1.5981	        1.5165	          0.0815	   1.5981	        1.5165	1000000.0000	5.947e-02	9.141e+01	1.537e+03	1.629e+03	 1.0000	 0.0000	 0.0000	 0.0000	 1.00000	  59.4335	   1.1330	   0.5117	   0.0194	   0.6018	   0.2251	  58.0755	1.029e+03	1.136e-01	   4.694	 11476.217
30400	30400	 5.6891	 1.9891	   1.5971	        1.5165	          0.0805	   1.5971	        1.5165	1000000.0000	5.156e-02	7.926e+01	1.537e+03	1.458e+03	 1.0000	 0.0000	 0.0000	 0.0000	 1.00000	  51.7141	   1.1346	   0.5135	   0.0194	   0.6017	   0.2251	  50.3544	9.211e+02	1.136e-01	   5.871	 11786.469
31200	31200	 5.5930	 1.9884	   1.5969	        1.5165	          0.0803	   1.5969	        1.5165	1000000.0000	6.750e-02	1.038e+02	1.537e+03	1.433e+03	 1.0000	 0.0000	 0.0000	 0.0000	 1.00000	  67.2771	   1.1356	   0.5148	   0.0194	   0.6014	   0.2251	  65.9164	9.055e+02	1.136e-01	   4.754	 12104.772
32000	32000	 6.5597	 1.9889	   1.5983	        1.5165	          0.0817	   1.5983	        1.5165	1000000.0000	9.275e-02	1.426e+02	1.537e+03	1.680e+03	 1.0000	 0.0000	 0.0000	 0.0000	 1.00000	  91.9376	   1.1344	   0.5134	   0.0194	   0.6016	   0.2251	  90.5781	1.062e+03	1.136e-01	   6.254	 12412.098
32800	32800	 6.0553	 1.9891	   1.5976	        1.5165	          0.0810	   1.5976	        1.5165	1000000.0000	9.145e-03	1.406e+01	1.537e+03	1.551e+03	 1.0000	 0.0000	 0.0000	 0.0000	 1.00000	  10.2884	   1.1323	   0.5112	   0.0194	   0.6017	   0.2251	   8.9310	9.803e+02	1.136e-01	   9.893	 12748.515
33600	33600	 6.4854	 1.9895	   1.5983	        1.5165	          0.0817	   1.5983	        1.5165	1000000.0000	8.045e-02	1.237e+02	1.537e+03	1.661e+03	 1.0000	 0.0000	 0.0000	 0.0000	 1.00000	  79.9203	   1.1339	   0.5126	   0.0194	   0.6019	   0.2251	  78.5614	1.050e+03	1.136e-01	   6.487	 13049.139
34400	34400	 5.9178	 1.9885	   1.5973	        1.5165	          0.0808	   1.5973	        1.5165	1000000.0000	1.365e-02	2.098e+01	1.537e+03	1.516e+03	 1.0000	 0.0000	 0.0000	 0.0000	 1.00000	  14.6865	   1.1327	   0.5118	   0.0194	   0.6014	   0.2250	  13.3287	9.580e+02	1.136e-01	   6.732	 13347.278
35200	35200	 6.5658	 1.9890	   1.5983	        1.5165	          0.0818	   1.5983	        1.5165	1000000.0000	9.377e-02	1.441e+02	1.537e+03	1.681e+03	 1.0000	 0.0000	 0.0000	 0.0000	 1.00000	  92.9327	   1.1345	   0.5134	   0.0194	   0.6017	   0.2250	  91.5731	1.063e+03	1.136e-01	   4.846	 13666.070
36000	36000	 6.2317	 1.9878	   1.5977	        1.5165	          0.0812	   1.5977	        1.5165	1000000.0000	3.838e-02	5.899e+01	1.537e+03	1.596e+03	 1.0000	 0.0000	 0.0000	 0.0000	 1.00000	  38.8352	   1.1322	   0.5116	   0.0194	   0.6011	   0.2250	  37.4780	1.009e+03	1.136e-01	   5.726	 13974.658
36800	36800	 5.7870	 1.9880	   1.5971	        1.5165	          0.0805	   1.5971	        1.5165	1000000.0000	3.534e-02	5.432e+01	1.537e+03	1.483e+03	 1.0000	 0.0000	 0.0000	 0.0000	 1.00000	  35.8671	   1.1334	   0.5128	   0.0194	   0.6012	   0.2250	  34.5086	9.369e+02	1.136e-01	   6.041	 14262.988
37600	37600	 5.9059	 1.9885	   1.5973	        1.5165	          0.0808	   1.5973	        1.5165	1000000.0000	1.563e-02	2.403e+01	1.537e+03	1.513e+03	 1.0000	 0.0000	 0.0000	 0.0000	 1.00000	  16.6251	   1.1327	   0.5119	   0.0194	   0.6015	   0.2250	  15.2674	9.561e+02	1.136e-01	   5.575	 14587.223
38400	38400	 5.4902	 1.9880	   1.5967	        1.5165	          0.0801	   1.5967	        1.5165	1000000.0000	8.455e-02	1.300e+02	1.537e+03	1.407e+03	 1.0000	 0.0000	 0.0000	 0.0000	 1.00000	  83.9270	   1.1371	   0.5165	   0.0194	   0.6012	   0.2250	  82.5649	8.889e+02	1.136e-01	   5.199	 14887.149
39200	39200	 6.4882	 1.9879	   1.5981	        1.5165	          0.0815	   1.5981	        1.5165	1000000.0000	8.090e-02	1.244e+02	1.537e+03	1.662e+03	 1.0000	 0.0000	 0.0000	 0.0000	 1.00000	  80.3648	   1.1336	   0.5130	   0.0194	   0.6012	   0.2250	  79.0062	1.050e+03	1.136e-01	   7.321	 15190.140
40000	40000	 6.0646	 1.9876	   1.5974	        1.5165	          0.0809	   1.5974	        1.5165	1000000.0000	1.068e-02	1.642e+01	1.537e+03	1.554e+03	 1.0000	 0.0000	 0.0000	 0.0000	 1.00000	  11.7903	   1.1320	   0.5116	   0.0194	   0.6011	   0.2250	  10.4332	9.818e+02	1.136e-01	   7.235	 15519.915
40800	40800	 5.9332	 1.9879	   1.5973	        1.5165	          0.0807	   1.5973	        1.5165	1000000.0000	1.111e-02	1.708e+01	1.537e+03	1.520e+03	 1.0000	 0.0000	 0.0000	 0.0000	 1.00000	  12.2093	   1.1325	   0.5119	   0.0194	   0.6012	   0.2250	  10.8518	9.605e+02	1.136e-01	   5.847	 15821.443
41600	41600	 6.3955	 1.9876	   1.5979	        1.5165	          0.0814	   1.5979	        1.5165	1000000.0000	6.553e-02	1.007e+02	1.537e+03	1.638e+03	 1.0000	 0.0000	 0.0000	 0.0000	 1.00000	  65.3483	   1.1329	   0.5124	   0.0194	   0.6011	   0.2250	  63.9904	1.035e+03	1.136e-01	   5.809	 16161.866
42400	42400	 6.3018	 1.9881	   1.5978	        1.5165	          0.0813	   1.5978	        1.5165	1000000.0000	5.000e-02	7.686e+01	1.537e+03	1.614e+03	 1.0000	 0.0000	 0.0000	 0.0000	 1.00000	  50.1845	   1.1325	   0.5118	   0.0194	   0.6013	   0.2250	  48.8271	1.020e+03	1.136e-01	   6.454	 16462.804
43200	43200	 6.4379	 1.9882	   1.5980	        1.5165	          0.0815	   1.5980	        1.5165	1000000.0000	7.257e-02	1.116e+02	1.537e+03	1.649e+03	 1.0000	 0.0000	 0.0000	 0.0000	 1.00000	  72.2268	   1.1333	   0.5125	   0.0194	   0.6013	   0.2250	  70.8685	1.042e+03	1.136e-01	   5.562	 16773.590
44000	44000	 5.4987	 1.9891	   1.5968	        1.5165	          0.0803	   1.5968	        1.5165	1000000.0000	8.313e-02	1.278e+02	1.537e+03	1.409e+03	 1.0000	 0.0000	 0.0000	 0.0000	 1.00000	  82.5390	   1.1371	   0.5160	   0.0194	   0.6017	   0.2250	  81.1768	8.903e+02	1.136e-01	   5.088	 17102.766
44800	44800	 6.1725	 1.9876	   1.5976	        1.5165	          0.0810	   1.5976	        1.5165	1000000.0000	2.856e-02	4.391e+01	1.537e+03	1.581e+03	 1.0000	 0.0000	 0.0000	 0.0000	 1.00000	  29.2506	   1.1320	   0.5116	   0.0194	   0.6011	   0.2250	  27.8935	9.993e+02	1.136e-01	   5.876	 17410.518
45600	45600	 5.8047	 1.9865	   1.5969	        1.5165	          0.0804	   1.5969	        1.5165	1000000.0000	3.241e-02	4.982e+01	1.537e+03	1.487e+03	 1.0000	 0.0000	 0.0000	 0.0000	 1.00000	  33.0095	   1.1330	   0.5131	   0.0194	   0.6006	   0.2250	  31.6515	9.398e+02	1.136e-01	   4.519	 17705.289
46400	46400	 6.4215	 1.9872	   1.5979	        1.5165	          0.0814	   1.5979	        1.5165	1000000.0000	6.984e-02	1.074e+02	1.537e+03	1.645e+03	 1.0000	 0.0000	 0.0000	 0.0000	 1.00000	  69.5615	   1.1330	   0.5127	   0.0194	   0.6009	   0.2250	  68.2036	1.040e+03	1.136e-01	   4.931	 18015.831
47200	47200	 6.2489	 1.9871	   1.5976	        1.5165	          0.0811	   1.5976	        1.5165	1000000.0000	4.123e-02	6.338e+01	1.537e+03	1.601e+03	 1.0000	 0.0000	 0.0000	 0.0000	 1.00000	  41.6236	   1.1321	   0.5119	   0.0194	   0.6008	   0.2250	  40.2665	1.012e+03	1.136e-01	   4.866	 18343.194
48000	48000	 5.5132	 1.9862	   1.5965	        1.5165	          0.0799	   1.5965	        1.5165	1000000.0000	8.073e-02	1.241e+02	1.537e+03	1.413e+03	 1.0000	 0.0000	 0.0000	 0.0000	 1.00000	  80.2011	   1.1364	   0.5166	   0.0194	   0.6004	   0.2250	  78.8397	8.926e+02	1.136e-01	   6.328	 18663.673
48800	48800	 5.6370	 1.9868	   1.5967	        1.5165	          0.0802	   1.5967	        1.5165	1000000.0000	6.021e-02	9.255e+01	1.537e+03	1.445e+03	 1.0000	 0.0000	 0.0000	 0.0000	 1.00000	  60.1565	   1.1348	   0.5147	   0.0194	   0.6007	   0.2250	  58.7967	9.126e+02	1.136e-01	   5.198	 18989.686
49600	49600	 5.6302	 1.9869	   1.5967	        1.5165	          0.0802	   1.5967	        1.5165	1000000.0000	6.134e-02	9.430e+01	1.537e+03	1.443e+03	 1.0000	 0.0000	 0.0000	 0.0000	 1.00000	  61.2656	   1.1349	   0.5147	   0.0194	   0.6008	   0.2250	  59.9057	9.115e+02	1.136e-01	   8.432	 19325.189
50400	50400	 6.4922	 1.9869	   1.5980	        1.5165	          0.0814	   1.5980	        1.5165	1000000.0000	8.156e-02	1.254e+02	1.537e+03	1.663e+03	 1.0000	 0.0000	 0.0000	 0.0000	 1.00000	  81.0084	   1.1335	   0.5133	   0.0194	   0.6008	   0.2250	  79.6500	1.051e+03	1.136e-01	   6.379	 19666.664
51200	51200	 6.3299	 1.9873	   1.5978	        1.5165	          0.0812	   1.5978	        1.5165	1000000.0000	5.465e-02	8.400e+01	1.537e+03	1.621e+03	 1.0000	 0.0000	 0.0000	 0.0000	 1.00000	  54.7238	   1.1324	   0.5121	   0.0194	   0.6009	   0.2250	  53.3663	1.025e+03	1.136e-01	   5.962	 19979.746
52000	52000	 5.9634	 1.9867	   1.5972	        1.5165	          0.0806	   1.5972	        1.5165	1000000.0000	6.109e-03	9.390e+00	1.537e+03	1.528e+03	 1.0000	 0.0000	 0.0000	 0.0000	 1.00000	   7.3229	   1.1321	   0.5121	   0.0194	   0.6007	   0.2250	   5.9657	9.654e+02	1.136e-01	   4.336	 20292.130
52800	52800	 5.8969	 1.9868	   1.5971	        1.5165	          0.0806	   1.5971	        1.5165	1000000.0000	1.713e-02	2.633e+01	1.537e+03	1.511e+03	 1.0000	 0.0000	 0.0000	 0.0000	 1.00000	  18.0855	   1.1325	   0.5124	   0.0194	   0.6007	   0.2250	  16.7281	9.547e+02	1.136e-01	   7.676	 20609.480
53600	53600	 6.3814	 1.9870	   1.5978	        1.5165	          0.0813	   1.5978	        1.5165	1000000.0000	6.318e-02	9.712e+01	1.537e+03	1.634e+03	 1.0000	 0.0000	 0.0000	 0.0000	 1.00000	  63.0606	   1.1327	   0.5125	   0.0194	   0.6008	   0.2250	  61.7029	1.033e+03	1.136e-01	   5.827	 20902.515
54400	54400	 6.0746	 1.9864	   1.5973	        1.5165	          0.0808	   1.5973	        1.5165	1000000.0000	1.233e-02	1.896e+01	1.537e+03	1.556e+03	 1.0000	 0.0000	 0.0000	 0.0000	 1.00000	  13.4008	   1.1318	   0.5119	   0.0194	   0.6006	   0.2250	  12.0441	9.834e+02	1.136e-01	   6.207	 21238.721
55200	55200	 6.5550	 1.9875	   1.5981	        1.5165	          0.0816	   1.5981	        1.5165	1000000.0000	9.197e-02	1.414e+02	1.537e+03	1.679e+03	 1.0000	 0.0000	 0.0000	 0.0000	 1.00000	  91.1750	   1.1342	   0.5138	   0.0194	   0.6010	   0.2250	  89.8159	1.061e+03	1.136e-01	   5.425	 21556.118
56000	56000	 6.1328	 1.9863	   1.5974	        1.5165	          0.0808	   1.5974	        1.5165	1000000.0000	2.198e-02	3.379e+01	1.537e+03	1.571e+03	 1.0000	 0.0000	 0.0000	 0.0000	 1.00000	  22.8261	   1.1318	   0.5119	   0.0194	   0.6005	   0.2250	  21.4694	9.928e+02	1.136e-01	   5.784	 21871.508
56800	56800	 6.1349	 1.9868	   1.5974	        1.5165	          0.0809	   1.5974	        1.5165	1000000.0000	2.233e-02	3.433e+01	1.537e+03	1.571e+03	 1.0000	 0.0000	 0.0000	 0.0000	 1.00000	  23.1647	   1.1319	   0.5118	   0.0194	   0.6007	   0.2250	  21.8079	9.932e+02	1.136e-01	   7.192	 22196.192
57600	57600	 6.0770	 1.9860	   1.5973	        1.5165	          0.0807	   1.5973	        1.5165	1000000.0000	1.273e-02	1.957e+01	1.537e+03	1.557e+03	 1.0000	 0.0000	 0.0000	 0.0000	 1.00000	  13.7918	   1.1317	   0.5120	   0.0194	   0.6004	   0.2250	  12.4351	9.838e+02	1.136e-01	   4.964	 22504.206
58400	58400	 5.8012	 1.9863	   1.5969	        1.5165	          0.0804	   1.5969	        1.5165	1000000.0000	3.299e-02	5.071e+01	1.537e+03	1.486e+03	 1.0000	 0.0000	 0.0000	 0.0000	 1.00000	  33.5717	   1.1330	   0.5131	   0.0194	   0.6005	   0.2250	  32.2138	9.392e+02	1.136e-01	   5.359	 22811.765
59200	59200	 5.5345	 1.9857	   1.5965	        1.5165	          0.0799	   1.5965	        1.5165	1000000.0000	7.721e-02	1.187e+02	1.537e+03	1.419e+03	 1.0000	 0.0000	 0.0000	 0.0000	 1.00000	  76.7568	   1.1360	   0.5163	   0.0194	   0.6002	   0.2249	  75.3959	8.960e+02	1.136e-01	   6.238	 23127.147
60000	60000	 6.5841	 1.9867	   1.5981	        1.5165	          0.0815	   1.5981	        1.5165	1000000.0000	9.680e-02	1.488e+02	1.537e+03	1.686e+03	 1.0000	 0.0000	 0.0000	 0.0000	 1.00000	  95.8909	   1.1343	   0.5143	   0.0194	   0.6006	   0.2249	  94.5317	1.066e+03	1.136e-01	   4.499	 23447.529
60800	60800	 6.0560	 1.9869	   1.5973	        1.5165	          0.0808	   1.5973	        1.5165	1000000.0000	9.256e-03	1.423e+01	1.537e+03	1.551e+03	 1.0000	 0.0000	 0.0000	 0.0000	 1.00000	  10.3963	   1.1319	   0.5118	   0.0194	   0.6008	   0.2249	   9.0394	9.804e+02	1.136e-01	   6.419	 23746.451
61600	61600	 5.5652	 1.9860	   1.5965	        1.5165	          0.0800	   1.5965	        1.5165	1000000.0000	7.211e-02	1.108e+02	1.537e+03	1.426e+03	 1.0000	 0.0000	 0.0000	 0.0000	 1.00000	  71.7805	   1.1356	   0.5158	   0.0194	   0.6004	   0.2249	  70.4200	9.010e+02	1.136e-01	   4.660	 24032.984
62400	62400	 6.3298	 1.9859	   1.5976	        1.5165	          0.0811	   1.5976	        1.5165	1000000.0000	5.463e-02	8.398e+01	1.537e+03	1.621e+03	 1.0000	 0.0000	 0.0000	 0.0000	 1.00000	  54.7113	   1.1322	   0.5125	   0.0194	   0.6003	   0.2249	  53.3542	1.025e+03	1.136e-01	   5.336	 24331.432
63200	63200	 5.5490	 1.9859	   1.5965	        1.5165	          0.0800	   1.5965	        1.5165	1000000.0000	7.480e-02	1.150e+02	1.537e+03	1.422e+03	 1.0000	 0.0000	 0.0000	 0.0000	 1.00000	  74.4090	   1.1358	   0.5161	   0.0194	   0.6003	   0.2249	  73.0483	8.984e+02	1.136e-01	   4.574	 24614.516
64000	64000	 6.2650	 1.9860	   1.5975	        1.5165	          0.0810	   1.5975	        1.5165	1000000.0000	4.389e-02	6.746e+01	1.537e+03	1.605e+03	 1.0000	 0.0000	 0.0000	 0.0000	 1.00000	  44.2173	   1.1320	   0.5122	   0.0194	   0.6004	   0.2249	  42.8604	1.014e+03	1.136e-01	   6.541	 24919.189
64800	64800	 5.7882	 1.9857	   1.5968	        1.5165	          0.0803	   1.5968	        1.5165	1000000.0000	3.514e-02	5.402e+01	1.537e+03	1.483e+03	 1.0000	 0.0000	 0.0000	 0.0000	 1.00000	  35.6750	   1.1330	   0.5134	   0.0194	   0.6002	   0.2249	  34.3170	9.371e+02	1.136e-01	   5.910	 25202.049
65600	65600	 6.3668	 1.9859	   1.5977	        1.5165	          0.0811	   1.5977	        1.5165	1000000.0000	6.076e-02	9.340e+01	1.537e+03	1.631e+03	 1.0000	 0.0000	 0.0000	 0.0000	 1.00000	  60.6967	   1.1324	   0.5127	   0.0194	   0.6003	   0.2249	  59.3394	1.031e+03	1.136e-01	   5.019	 25476.627
66400	66400	 5.8426	 1.9854	   1.5969	        1.5165	          0.0803	   1.5969	        1.5165	1000000.0000	2.614e-02	4.018e+01	1.537e+03	1.497e+03	 1.0000	 0.0000	 0.0000	 0.0000	 1.00000	  26.8834	   1.1325	   0.5131	   0.0194	   0.6001	   0.2249	  25.5260	9.459e+02	1.136e-01	   6.705	 25754.575
67200	67200	 5.6391	 1.9857	   1.5966	        1.5165	          0.0801	   1.5966	        1.5165	1000000.0000	5.986e-02	9.201e+01	1.537e+03	1.445e+03	 1.0000	 0.0000	 0.0000	 0.0000	 1.00000	  59.8145	   1.1345	   0.5149	   0.0194	   0.6002	   0.2249	  58.4550	9.130e+02	1.136e-01	   4.733	 26035.891
68000	68000	 5.4877	 1.9854	   1.5964	        1.5165	          0.0798	   1.5964	        1.5165	1000000.0000	8.496e-02	1.306e+02	1.537e+03	1.407e+03	 1.0000	 0.0000	 0.0000	 0.0000	 1.00000	  84.3314	   1.1366	   0.5171	   0.0194	   0.6001	   0.2249	  82.9698	8.885e+02	1.136e-01	   7.271	 26327.353
68800	68800	 5.6853	 1.9852	   1.5966	        1.5165	          0.0801	   1.5966	        1.5165	1000000.0000	5.220e-02	8.024e+01	1.537e+03	1.457e+03	 1.0000	 0.0000	 0.0000	 0.0000	 1.00000	  52.3353	   1.1339	   0.5145	   0.0194	   0.6000	   0.2249	  50.9765	9.204e+02	1.136e-01	   4.346	 26614.355
69600	69600	 5.4678	 1.9862	   1.5964	        1.5165	          0.0799	   1.5964	        1.5165	1000000.0000	8.826e-02	1.357e+02	1.537e+03	1.402e+03	 1.0000	 0.0000	 0.0000	 0.0000	 1.00000	  87.5570	   1.1371	   0.5173	   0.0194	   0.6004	   0.2249	  86.1950	8.853e+02	1.136e-01	   4.724	 26913.209
70400	70400	 6.3056	 1.9861	   1.5976	        1.5165	          0.0811	   1.5976	        1.5165	1000000.0000	5.063e-02	7.783e+01	1.537e+03	1.615e+03	 1.0000	 0.0000	 0.0000	 0.0000	 1.00000	  50.7995	   1.1321	   0.5123	   0.0194	   0.6004	   0.2249	  49.4424	1.021e+03	1.136e-01	   6.159	 27223.914
71200	71200	 5.7965	 1.9849	   1.5967	        1.5165	          0.0802	   1.5967	        1.5165	1000000.0000	3.377e-02	5.192e+01	1.537e+03	1.485e+03	 1.0000	 0.0000	 0.0000	 0.0000	 1.00000	  34.3406	   1.1328	   0.5135	   0.0194	   0.5999	   0.2249	  32.9829	9.384e+02	1.136e-01	   6.304	 27529.658
72000	72000	 5.5623	 1.9844	   1.5964	        1.5165	          0.0798	   1.5964	        1.5165	1000000.0000	7.259e-02	1.116e+02	1.537e+03	1.426e+03	 1.0000	 0.0000	 0.0000	 0.0000	 1.00000	  72.2537	   1.1353	   0.5163	   0.0194	   0.5997	   0.2249	  70.8935	9.006e+02	1.136e-01	   5.689	 27828.249
72800	72800	 5.9637	 1.9842	   1.5969	        1.5165	          0.0804	   1.5969	        1.5165	1000000.0000	6.052e-03	9.303e+00	1.537e+03	1.528e+03	 1.0000	 0.0000	 0.0000	 0.0000	 1.00000	   7.2670	   1.1317	   0.5127	   0.0194	   0.5996	   0.2249	   5.9104	9.654e+02	1.136e-01	   5.856	 28118.335
73600	73600	 6.3845	 1.9846	   1.5976	        1.5165	          0.0810	   1.5976	        1.5165	1000000.0000	6.370e-02	9.792e+01	1.537e+03	1.635e+03	 1.0000	 0.0000	 0.0000	 0.0000	 1.00000	  63.5669	   1.1323	   0.5131	   0.0194	   0.5997	   0.2249	  62.2097	1.034e+03	1.136e-01	   6.190	 28429.708
74400	74400	 5.5388	 1.9841	   1.5963	        1.5165	          0.0797	   1.5963	        1.5165	1000000.0000	7.649e-02	1.176e+02	1.537e+03	1.420e+03	 1.0000	 0.0000	 0.0000	 0.0000	 1.00000	  76.0605	   1.1356	   0.5167	   0.0194	   0.5995	   0.2249	  74.7000	8.967e+02	1.136e-01	   7.879	 28721.240
75200	75200	 5.4635	 1.9841	   1.5962	        1.5165	          0.0796	   1.5962	        1.5165	1000000.0000	8.898e-02	1.368e+02	1.537e+03	1.400e+03	 1.0000	 0.0000	 0.0000	 0.0000	 1.00000	  88.2549	   1.1368	   0.5179	   0.0194	   0.5995	   0.2249	  86.8933	8.846e+02	1.136e-01	   6.660	 29034.600
76000	76000	 5.9707	 1.9856	   1.5971	        1.5165	          0.0805	   1.5971	        1.5165	1000000.0000	4.900e-03	7.533e+00	1.537e+03	1.530e+03	 1.0000	 0.0000	 0.0000	 0.0000	 1.00000	   6.1422	   1.1319	   0.5123	   0.0194	   0.6002	   0.2249	   4.7854	9.665e+02	1.136e-01	   5.435	 29319.823
76800	76800	 6.0026	 1.9848	   1.5970	        1.5165	          0.0805	   1.5970	        1.5165	1000000.0000	4.003e-04	6.153e-01	1.537e+03	1.538e+03	 1.0000	 0.0000	 0.0000	 0.0000	 1.00000	   1.7474	   1.1317	   0.5124	   0.0194	   0.5998	   0.2249	   0.3909	9.608e+02	1.136e-01	   5.178	 29605.162
77600	77600	 5.8982	 1.9844	   1.5968	        1.5165	          0.0803	   1.5968	        1.5165	1000000.0000	1.691e-02	2.600e+01	1.537e+03	1.511e+03	 1.0000	 0.0000	 0.0000	 0.0000	 1.00000	  17.8722	   1.1320	   0.5130	   0.0194	   0.5996	   0.2249	  16.5153	9.549e+02	1.136e-01	   4.905	 29884.694
78400	78400	 5.6314	 1.9841	   1.5964	        1.5165	          0.0799	   1.5964	        1.5165	1000000.0000	6.114e-02	9.398e+01	1.537e+03	1.443e+03	 1.0000	 0.0000	 0.0000	 0.0000	 1.00000	  61.0667	   1.1343	   0.5154	   0.0194	   0.5995	   0.2249	  59.7075	9.117e+02	1.136e-01	   5.825	 30175.584
79200	79200	 6.2913	 1.9837	   1.5973	        1.5165	          0.0808	   1.5973	        1.5165	1000000.0000	4.825e-02	7.416e+01	1.537e+03	1.611e+03	 1.0000	 0.0000	 0.0000	 0.0000	 1.00000	  48.4732	   1.1316	   0.5129	   0.0194	   0.5993	   0.2249	  47.1167	1.019e+03	1.136e-01	   7.251	 30463.853
80000	80000	 5.9083	 1.9839	   1.5968	        1.5165	          0.0802	   1.5968	        1.5165	1000000.0000	1.525e-02	2.344e+01	1.537e+03	1.514e+03	 1.0000	 0.0000	 0.0000	 0.0000	 1.00000	  16.2451	   1.1319	   0.5131	   0.0194	   0.5994	   0.2249	  14.8884	9.565e+02	1.136e-01	   8.066	 30747.732
80800	80800	 6.5338	 1.9852	   1.5978	        1.5165	          0.0813	   1.5978	        1.5165	1000000.0000	8.845e-02	1.360e+02	1.537e+03	1.673e+03	 1.0000	 0.0000	 0.0000	 0.0000	 1.00000	  87.7318	   1.1335	   0.5142	   0.0194	   0.6000	   0.2249	  86.3734	1.058e+03	1.136e-01	   4.681	 31048.455
81600	81600	 5.6946	 1.9844	   1.5965	        1.5165	          0.0800	   1.5965	        1.5165	1000000.0000	5.067e-02	7.789e+01	1.537e+03	1.459e+03	 1.0000	 0.0000	 0.0000	 0.0000	 1.00000	  50.8406	   1.1337	   0.5146	   0.0194	   0.5996	   0.2249	  49.4821	9.219e+02	1.136e-01	   6.846	 31338.177
82400	82400	 5.9141	 1.9850	   1.5969	        1.5165	          0.0804	   1.5969	        1.5165	1000000.0000	1.428e-02	2.195e+01	1.537e+03	1.515e+03	 1.0000	 0.0000	 0.0000	 0.0000	 1.00000	  15.3019	   1.1320	   0.5127	   0.0194	   0.5999	   0.2249	  13.9450	9.574e+02	1.136e-01	   7.460	 31641.454
83200	83200	 5.7056	 1.9848	   1.5966	        1.5165	          0.0801	   1.5966	        1.5165	1000000.0000	4.884e-02	7.507e+01	1.537e+03	1.462e+03	 1.0000	 0.0000	 0.0000	 0.0000	 1.00000	  49.0494	   1.1336	   0.5144	   0.0194	   0.5998	   0.2249	  47.6910	9.237e+02	1.136e-01	   7.719	 31914.910
84000	84000	 6.5814	 1.9848	   1.5979	        1.5165	          0.0813	   1.5979	        1.5165	1000000.0000	9.635e-02	1.481e+02	1.537e+03	1.685e+03	 1.0000	 0.0000	 0.0000	 0.0000	 1.00000	  95.4483	   1.1340	   0.5147	   0.0194	   0.5998	   0.2248	  94.0895	1.066e+03	1.136e-01	   5.226	 32180.496
84800	84800	 5.8986	 1.9840	   1.5968	        1.5165	          0.0802	   1.5968	        1.5165	1000000.0000	1.685e-02	2.590e+01	1.537e+03	1.511e+03	 1.0000	 0.0000	 0.0000	 0.0000	 1.00000	  17.8090	   1.1319	   0.5131	   0.0194	   0.5995	   0.2248	  16.4522	9.549e+02	1.136e-01	   5.097	 32466.104
85600	85600	 5.9086	 1.9838	   1.5968	        1.5165	          0.0802	   1.5968	        1.5165	1000000.0000	1.519e-02	2.334e+01	1.537e+03	1.514e+03	 1.0000	 0.0000	 0.0000	 0.0000	 1.00000	  16.1875	   1.1318	   0.5131	   0.0194	   0.5994	   0.2248	  14.8308	9.566e+02	1.136e-01	   6.739	 32759.001
86400	86400	 5.5344	 1.9832	   1.5962	        1.5165	          0.0796	   1.5962	        1.5165	1000000.0000	7.723e-02	1.187e+02	1.537e+03	1.418e+03	 1.0000	 0.0000	 0.0000	 0.0000	 1.00000	  76.7837	   1.1355	   0.5170	   0.0194	   0.5991	   0.2248	  75.4234	8.960e+02	1.136e-01	   5.511	 33048.694
87200	87200	 6.0663	 1.9842	   1.5971	        1.5165	          0.0805	   1.5971	        1.5165	1000000.0000	1.096e-02	1.684e+01	1.537e+03	1.554e+03	 1.0000	 0.0000	 0.0000	 0.0000	 1.00000	  12.0547	   1.1314	   0.5125	   0.0194	   0.5996	   0.2248	  10.6985	9.820e+02	1.136e-01	   6.533	 33330.377
88000	88000	 6.1719	 1.9845	   1.5972	        1.5165	          0.0807	   1.5972	        1.5165	1000000.0000	2.845e-02	4.373e+01	1.537e+03	1.581e+03	 1.0000	 0.0000	 0.0000	 0.0000	 1.00000	  29.1382	   1.1315	   0.5124	   0.0194	   0.5997	   0.2248	  27.7819	9.992e+02	1.136e-01	   6.258	 33622.304
88800	88800	 6.0338	 1.9840	   1.5970	        1.5165	          0.0804	   1.5970	        1.5165	1000000.0000	5.563e-03	8.552e+00	1.537e+03	1.546e+03	 1.0000	 0.0000	 0.0000	 0.0000	 1.00000	   6.7891	   1.1314	   0.5126	   0.0194	   0.5995	   0.2248	   5.4329	9.767e+02	1.136e-01	   5.384	 33918.388
89600	89600	 5.5628	 1.9837	   1.5963	        1.5165	          0.0797	   1.5963	        1.5165	1000000.0000	7.252e-02	1.115e+02	1.537e+03	1.426e+03	 1.0000	 0.0000	 0.0000	 0.0000	 1.00000	  72.1818	   1.1352	   0.5164	   0.0194	   0.5993	   0.2248	  70.8218	9.006e+02	1.136e-01	   4.889	 34191.408
90400	90400	 6.1172	 1.9843	   1.5971	        1.5165	          0.0806	   1.5971	        1.5165	1000000.0000	1.939e-02	2.981e+01	1.537e+03	1.567e+03	 1.0000	 0.0000	 0.0000	 0.0000	 1.00000	  20.2932	   1.1314	   0.5124	   0.0194	   0.5996	   0.2248	  18.9370	9.903e+02	1.136e-01	   4.867	 34484.845
91200	91200	 5.5027	 1.9844	   1.5963	        1.5165	          0.0797	   1.5963	        1.5165	1000000.0000	8.248e-02	1.268e+02	1.537e+03	1.410e+03	 1.0000	 0.0000	 0.0000	 0.0000	 1.00000	  81.9049	   1.1362	   0.5172	   0.0194	   0.5996	   0.2248	  80.5439	8.909e+02	1.136e-01	   6.065	 34792.073
92000	92000	 5.9556	 1.9835	   1.5968	        1.5165	          0.0803	   1.5968	        1.5165	1000000.0000	7.407e-03	1.139e+01	1.537e+03	1.526e+03	 1.0000	 0.0000	 0.0000	 0.0000	 1.00000	   8.5899	   1.1316	   0.5129	   0.0194	   0.5993	   0.2248	   7.2335	9.641e+02	1.136e-01	   4.760	 35054.831
92800	92800	 6.1144	 1.9835	   1.5970	        1.5165	          0.0805	   1.5970	        1.5165	1000000.0000	1.892e-02	2.908e+01	1.537e+03	1.566e+03	 1.0000	 0.0000	 0.0000	 0.0000	 1.00000	  19.8290	   1.1313	   0.5126	   0.0194	   0.5993	   0.2248	  18.4729	9.898e+02	1.136e-01	   4.738	 35306.311
93600	93600	 6.4600	 1.9844	   1.5976	        1.5165	          0.0811	   1.5976	        1.5165	1000000.0000	7.622e-02	1.172e+02	1.537e+03	1.654e+03	 1.0000	 0.0000	 0.0000	 0.0000	 1.00000	  75.7865	   1.1328	   0.5137	   0.0194	   0.5996	   0.2248	  74.4290	1.046e+03	1.136e-01	   6.483	 35649.107
94400	94400	 5.4990	 1.9834	   1.5962	        1.5165	          0.0796	   1.5962	        1.5165	1000000.0000	8.309e-02	1.277e+02	1.537e+03	1.409e+03	 1.0000	 0.0000	 0.0000	 0.0000	 1.00000	  82.5031	   1.1361	   0.5175	   0.0194	   0.5992	   0.2248	  81.1422	8.903e+02	1.136e-01	   6.229	 35931.538
95200	95200	 6.0676	 1.9830	   1.5969	        1.5165	          0.0804	   1.5969	        1.5165	1000000.0000	1.116e-02	1.715e+01	1.537e+03	1.554e+03	 1.0000	 0.0000	 0.0000	 0.0000	 1.00000	  12.2510	   1.1312	   0.5128	   0.0194	   0.5990	   0.2248	  10.8951	9.822e+02	1.136e-01	   4.785	 36175.799
96000	96000	 5.7361	 1.9828	   1.5964	        1.5165	          0.0799	   1.5964	        1.5165	1000000.0000	4.378e-02	6.730e+01	1.537e+03	1.470e+03	 1.0000	 0.0000	 0.0000	 0.0000	 1.00000	  44.1159	   1.1329	   0.5146	   0.0194	   0.5989	   0.2248	  42.7581	9.287e+02	1.136e-01	   7.715	 36526.835
96800	96800	 6.4486	 1.9832	   1.5975	        1.5165	          0.0809	   1.5975	        1.5165	1000000.0000	7.432e-02	1.142e+02	1.537e+03	1.651e+03	 1.0000	 0.0000	 0.0000	 0.0000	 1.00000	  73.9394	   1.1325	   0.5140	   0.0194	   0.5991	   0.2248	  72.5822	1.044e+03	1.136e-01	   6.039	 36784.295
97600	97600	 5.4900	 1.9834	   1.5961	        1.5165	          0.0796	   1.5961	        1.5165	1000000.0000	8.459e-02	1.300e+02	1.537e+03	1.407e+03	 1.0000	 0.0000	 0.0000	 0.0000	 1.00000	  83.9691	   1.1362	   0.5176	   0.0194	   0.5992	   0.2248	  82.6081	8.888e+02	1.136e-01	   7.122	 37169.929
98400	98400	 5.7337	 1.9832	   1.5965	        1.5165	          0.0799	   1.5965	        1.5165	1000000.0000	4.419e-02	6.793e+01	1.537e+03	1.469e+03	 1.0000	 0.0000	 0.0000	 0.0000	 1.00000	  44.5107	   1.1330	   0.5145	   0.0194	   0.5991	   0.2248	  43.1529	9.283e+02	1.136e-01	   6.228	 37478.822
99200	99200	 5.6312	 1.9833	   1.5963	        1.5165	          0.0798	   1.5963	        1.5165	1000000.0000	6.118e-02	9.405e+01	1.537e+03	1.443e+03	 1.0000	 0.0000	 0.0000	 0.0000	 1.00000	  61.1085	   1.1342	   0.5156	   0.0194	   0.5992	   0.2248	  59.7496	9.117e+02	1.136e-01	   5.996	 37714.800
100000	100000	 6.0658	 1.9833	   1.5969	        1.5165	          0.0804	   1.5969	        1.5165	1000000.0000	1.087e-02	1.671e+01	1.537e+03	1.554e+03	 1.0000	 0.0000	 0.0000	 0.0000	 1.00000	  11.9728	   1.1312	   0.5127	   0.0194	   0.5991	   0.2248	  10.6168	9.820e+02	1.136e-01	  13.158	 37998.654
100800	100800	 6.4865	 1.9831	   1.5975	        1.5165	          0.0810	   1.5975	        1.5165	1000000.0000	8.060e-02	1.239e+02	1.537e+03	1.661e+03	 1.0000	 0.0000	 0.0000	 0.0000	 1.00000	  80.0655	   1.1327	   0.5143	   0.0194	   0.5991	   0.2248	  78.7080	1.050e+03	1.136e-01	   6.028	 38343.004
101600	101600	 6.2068	 1.9829	   1.5971	        1.5165	          0.0806	   1.5971	        1.5165	1000000.0000	3.423e-02	5.262e+01	1.537e+03	1.590e+03	 1.0000	 0.0000	 0.0000	 0.0000	 1.00000	  34.7867	   1.1312	   0.5128	   0.0194	   0.5990	   0.2248	  33.4307	1.005e+03	1.136e-01	   5.013	 38624.889
102400	102400	 5.8400	 1.9822	   1.5965	        1.5165	          0.0800	   1.5965	        1.5165	1000000.0000	2.656e-02	4.083e+01	1.537e+03	1.496e+03	 1.0000	 0.0000	 0.0000	 0.0000	 1.00000	  27.2971	   1.1320	   0.5139	   0.0194	   0.5987	   0.2248	  25.9403	9.455e+02	1.136e-01	   5.489	 38974.837
103200	103200	 6.4870	 1.9824	   1.5975	        1.5165	          0.0809	   1.5975	        1.5165	1000000.0000	8.069e-02	1.240e+02	1.537e+03	1.661e+03	 1.0000	 0.0000	 0.0000	 0.0000	 1.00000	  80.1531	   1.1326	   0.5144	   0.0194	   0.5988	   0.2248	  78.7957	1.050e+03	1.136e-01	   5.082	 39258.979
104000	104000	 5.7372	 1.9821	   1.5963	        1.5165	          0.0798	   1.5963	        1.5165	1000000.0000	4.362e-02	6.704e+01	1.537e+03	1.470e+03	 1.0000	 0.0000	 0.0000	 0.0000	 1.00000	  43.9511	   1.1328	   0.5148	   0.0194	   0.5986	   0.2248	  42.5935	9.288e+02	1.136e-01	   4.588	 39519.254
104800	104800	 6.2313	 1.9818	   1.5970	        1.5165	          0.0805	   1.5970	        1.5165	1000000.0000	3.830e-02	5.887e+01	1.537e+03	1.596e+03	 1.0000	 0.0000	 0.0000	 0.0000	 1.00000	  38.7557	   1.1311	   0.5132	   0.0194	   0.5985	   0.2248	  37.3999	1.009e+03	1.136e-01	   6.052	 39812.902
105600	105600	 5.7546	 1.9817	   1.5963	        1.5165	          0.0798	   1.5963	        1.5165	1000000.0000	4.073e-02	6.260e+01	1.537e+03	1.475e+03	 1.0000	 0.0000	 0.0000	 0.0000	 1.00000	  41.1299	   1.1326	   0.5147	   0.0194	   0.5985	   0.2248	  39.7725	9.317e+02	1.136e-01	   3.873	 40050.079
106400	106400	 6.3036	 1.9819	   1.5971	        1.5165	          0.0806	   1.5971	        1.5165	1000000.0000	5.029e-02	7.730e+01	1.537e+03	1.614e+03	 1.0000	 0.0000	 0.0000	 0.0000	 1.00000	  50.4630	   1.1314	   0.5134	   0.0194	   0.5985	   0.2248	  49.1069	1.021e+03	1.136e-01	   4.688	 40288.557
107200	107200	 5.4529	 1.9814	   1.5959	        1.5165	          0.0793	   1.5959	        1.5165	1000000.0000	9.074e-02	1.395e+02	1.537e+03	1.398e+03	 1.0000	 0.0000	 0.0000	 0.0000	 1.00000	  89.9756	   1.1365	   0.5188	   0.0194	   0.5983	   0.2248	  88.6143	8.829e+02	1.136e-01	   4.266	 40580.398
108000	108000	 6.4534	 1.9823	   1.5974	        1.5165	          0.0808	   1.5974	        1.5165	1000000.0000	7.512e-02	1.155e+02	1.537e+03	1.653e+03	 1.0000	 0.0000	 0.0000	 0.0000	 1.00000	  74.7165	   1.1323	   0.5142	   0.0194	   0.5987	   0.2248	  73.3594	1.045e+03	1.136e-01	  13.614	 40868.876
108800	108800	 5.9600	 1.9822	   1.5967	        1.5165	          0.0801	   1.5967	        1.5165	1000000.0000	6.682e-03	1.027e+01	1.537e+03	1.527e+03	 1.0000	 0.0000	 0.0000	 0.0000	 1.00000	   7.8818	   1.1313	   0.5133	   0.0194	   0.5987	   0.2247	   6.5257	9.648e+02	1.136e-01	   5.274	 41219.712
109600	109600	 6.0215	 1.9824	   1.5968	        1.5165	          0.0802	   1.5968	        1.5165	1000000.0000	3.512e-03	5.398e+00	1.537e+03	1.543e+03	 1.0000	 0.0000	 0.0000	 0.0000	 1.00000	   4.7855	   1.1312	   0.5130	   0.0194	   0.5988	   0.2247	   3.4295	9.747e+02	1.136e-01	   8.725	 41540.500
110400	110400	 5.6930	 1.9816	   1.5962	        1.5165	          0.0797	   1.5962	        1.5165	1000000.0000	5.094e-02	7.830e+01	1.537e+03	1.459e+03	 1.0000	 0.0000	 0.0000	 0.0000	 1.00000	  51.1050	   1.1332	   0.5153	   0.0194	   0.5984	   0.2247	  49.7471	9.217e+02	1.136e-01	   7.096	 41821.791
111200	111200	 5.7928	 1.9812	   1.5963	        1.5165	          0.0798	   1.5963	        1.5165	1000000.0000	3.439e-02	5.286e+01	1.537e+03	1.484e+03	 1.0000	 0.0000	 0.0000	 0.0000	 1.00000	  34.9416	   1.1322	   0.5145	   0.0194	   0.5983	   0.2247	  33.5847	9.378e+02	1.136e-01	   6.740	 42232.192
112000	112000	 5.8644	 1.9820	   1.5965	        1.5165	          0.0800	   1.5965	        1.5165	1000000.0000	2.253e-02	3.463e+01	1.537e+03	1.503e+03	 1.0000	 0.0000	 0.0000	 0.0000	 1.00000	  23.3567	   1.1318	   0.5138	   0.0194	   0.5986	   0.2247	  22.0002	9.494e+02	1.136e-01	   6.487	 42529.455
112800	112800	 6.4239	 1.9813	   1.5972	        1.5165	          0.0807	   1.5972	        1.5165	1000000.0000	7.022e-02	1.079e+02	1.537e+03	1.645e+03	 1.0000	 0.0000	 0.0000	 0.0000	 1.00000	  69.9318	   1.1319	   0.5142	   0.0194	   0.5983	   0.2247	  68.5751	1.040e+03	1.136e-01	   4.791	 42833.535
113600	113600	 6.1844	 1.9821	   1.5970	        1.5165	          0.0804	   1.5970	        1.5165	1000000.0000	3.051e-02	4.691e+01	1.537e+03	1.584e+03	 1.0000	 0.0000	 0.0000	 0.0000	 1.00000	  31.1549	   1.1310	   0.5130	   0.0194	   0.5986	   0.2247	  29.7992	1.001e+03	1.136e-01	   4.445	 43062.953
114400	114400	 5.4503	 1.9816	   1.5959	        1.5165	          0.0793	   1.5959	        1.5165	1000000.0000	9.118e-02	1.402e+02	1.537e+03	1.397e+03	 1.0000	 0.0000	 0.0000	 0.0000	 1.00000	  90.4007	   1.1366	   0.5188	   0.0194	   0.5984	   0.2247	  89.0394	8.824e+02	1.136e-01	   5.933	 43303.975
115200	115200	 6.0200	 1.9825	   1.5968	        1.5165	          0.0802	   1.5968	        1.5165	1000000.0000	3.273e-03	5.031e+00	1.537e+03	1.542e+03	 1.0000	 0.0000	 0.0000	 0.0000	 1.00000	   4.5521	   1.1312	   0.5130	   0.0194	   0.5988	   0.2247	   3.1962	9.744e+02	1.136e-01	   4.703	 43575.011
116000	116000	 6.2309	 1.9817	   1.5970	        1.5165	          0.0805	   1.5970	        1.5165	1000000.0000	3.822e-02	5.875e+01	1.537e+03	1.596e+03	 1.0000	 0.0000	 0.0000	 0.0000	 1.00000	  38.6821	   1.1311	   0.5132	   0.0194	   0.5985	   0.2247	  37.3263	1.009e+03	1.136e-01	   4.190	 43887.410
116800	116800	 6.2327	 1.9815	   1.5970	        1.5165	          0.0804	   1.5970	        1.5165	1000000.0000	3.852e-02	5.922e+01	1.537e+03	1.596e+03	 1.0000	 0.0000	 0.0000	 0.0000	 1.00000	  38.9758	   1.1310	   0.5133	   0.0194	   0.5984	   0.2247	  37.6200	1.009e+03	1.136e-01	   5.077	 44148.730
117600	117600	 6.0542	 1.9809	   1.5967	        1.5165	          0.0801	   1.5967	        1.5165	1000000.0000	8.941e-03	1.374e+01	1.537e+03	1.551e+03	 1.0000	 0.0000	 0.0000	 0.0000	 1.00000	  10.0866	   1.1308	   0.5133	   0.0194	   0.5981	   0.2247	   8.7311	9.801e+02	1.136e-01	   8.624	 44453.407
118400	118400	 5.5344	 1.9804	   1.5959	        1.5165	          0.0793	   1.5959	        1.5165	1000000.0000	7.724e-02	1.187e+02	1.537e+03	1.418e+03	 1.0000	 0.0000	 0.0000	 0.0000	 1.00000	  76.7864	   1.1350	   0.5177	   0.0194	   0.5979	   0.2247	  75.4267	8.960e+02	1.136e-01	   4.968	 44759.403
119200	119200	 6.3054	 1.9807	   1.5970	        1.5165	          0.0805	   1.5970	        1.5165	1000000.0000	5.057e-02	7.774e+01	1.537e+03	1.615e+03	 1.0000	 0.0000	 0.0000	 0.0000	 1.00000	  50.7429	   1.1312	   0.5137	   0.0194	   0.5980	   0.2247	  49.3870	1.021e+03	1.136e-01	   4.061	 45007.511
120000	120000	 5.4732	 1.9813	   1.5959	        1.5165	          0.0793	   1.5959	        1.5165	1000000.0000	8.738e-02	1.343e+02	1.537e+03	1.403e+03	 1.0000	 0.0000	 0.0000	 0.0000	 1.00000	  86.6946	   1.1361	   0.5184	   0.0194	   0.5983	   0.2247	  85.3337	8.861e+02	1.136e-01	   4.690	 45344.777
120800	120800	 6.5120	 1.9813	   1.5974	        1.5165	          0.0808	   1.5974	        1.5165	1000000.0000	8.483e-02	1.304e+02	1.537e+03	1.668e+03	 1.0000	 0.0000	 0.0000	 0.0000	 1.00000	  84.1953	   1.1326	   0.5150	   0.0194	   0.5983	   0.2247	  82.8380	1.054e+03	1.136e-01	   8.385	 45618.708
121600	121600	 6.0020	 1.9815	   1.5966	        1.5165	          0.0801	   1.5966	        1.5165	1000000.0000	2.930e-04	4.505e-01	1.537e+03	1.538e+03	 1.0000	 0.0000	 0.0000	 0.0000	 1.00000	   1.6419	   1.1310	   0.5133	   0.0194	   0.5984	   0.2247	   0.2862	9.533e+02	1.136e-01	   5.483	 45844.501
122400	122400	 5.6432	 1.9812	   1.5961	        1.5165	          0.0796	   1.5961	        1.5165	1000000.0000	5.919e-02	9.099e+01	1.537e+03	1.446e+03	 1.0000	 0.0000	 0.0000	 0.0000	 1.00000	  59.1622	   1.1337	   0.5160	   0.0194	   0.5982	   0.2247	  57.8039	9.136e+02	1.136e-01	   4.673	 46117.807
123200	123200	 5.9003	 1.9813	   1.5965	        1.5165	          0.0799	   1.5965	        1.5165	1000000.0000	1.657e-02	2.547e+01	1.537e+03	1.512e+03	 1.0000	 0.0000	 0.0000	 0.0000	 1.00000	  17.5378	   1.1314	   0.5137	   0.0194	   0.5983	   0.2247	  16.1817	9.552e+02	1.136e-01	   7.696	 46348.312
124000	124000	 6.4235	 1.9810	   1.5972	        1.5165	          0.0807	   1.5972	        1.5165	1000000.0000	7.015e-02	1.078e+02	1.537e+03	1.645e+03	 1.0000	 0.0000	 0.0000	 0.0000	 1.00000	  69.8610	   1.1319	   0.5143	   0.0194	   0.5982	   0.2247	  68.5044	1.040e+03	1.136e-01	   4.777	 46614.985
124800	124800	 6.4259	 1.9806	   1.5972	        1.5165	          0.0806	   1.5972	        1.5165	1000000.0000	7.056e-02	1.085e+02	1.537e+03	1.646e+03	 1.0000	 0.0000	 0.0000	 0.0000	 1.00000	  70.2599	   1.1318	   0.5145	   0.0194	   0.5980	   0.2247	  68.9034	1.040e+03	1.136e-01	   4.537	 46920.135
125600	125600	 6.2314	 1.9800	   1.5968	        1.5165	          0.0803	   1.5968	        1.5165	1000000.0000	3.831e-02	5.890e+01	1.537e+03	1.596e+03	 1.0000	 0.0000	 0.0000	 0.0000	 1.00000	  38.7717	   1.1308	   0.5137	   0.0194	   0.5977	   0.2247	  37.4162	1.009e+03	1.136e-01	   4.671	 47206.819
126400	126400	 6.0670	 1.9808	   1.5967	        1.5165	          0.0801	   1.5967	        1.5165	1000000.0000	1.106e-02	1.699e+01	1.537e+03	1.554e+03	 1.0000	 0.0000	 0.0000	 0.0000	 1.00000	  12.1523	   1.1308	   0.5133	   0.0194	   0.5981	   0.2247	  10.7968	9.822e+02	1.136e-01	   4.477	 47520.957
127200	127200	 5.6630	 1.9802	   1.5960	        1.5165	          0.0795	   1.5960	        1.5165	1000000.0000	5.592e-02	8.596e+01	1.537e+03	1.451e+03	 1.0000	 0.0000	 0.0000	 0.0000	 1.00000	  55.9691	   1.1332	   0.5160	   0.0194	   0.5978	   0.2247	  54.6112	9.168e+02	1.136e-01	   5.282	 47803.091
128000	128000	 6.1788	 1.9799	   1.5967	        1.5165	          0.0802	   1.5967	        1.5165	1000000.0000	2.958e-02	4.547e+01	1.537e+03	1.583e+03	 1.0000	 0.0000	 0.0000	 0.0000	 1.00000	  30.2438	   1.1306	   0.5136	   0.0194	   0.5977	   0.2247	  28.8884	1.000e+03	1.136e-01	   4.835	 48090.231
128800	128800	 5.5531	 1.9794	   1.5958	        1.5165	          0.0792	   1.5958	        1.5165	1000000.0000	7.413e-02	1.140e+02	1.537e+03	1.423e+03	 1.0000	 0.0000	 0.0000	 0.0000	 1.00000	  73.7545	   1.1345	   0.5177	   0.0194	   0.5975	   0.2247	  72.3953	8.991e+02	1.136e-01	   6.382	 48377.811
129600	129600	 6.5835	 1.9796	   1.5973	        1.5165	          0.0807	   1.5973	        1.5165	1000000.0000	9.668e-02	1.486e+02	1.537e+03	1.686e+03	 1.0000	 0.0000	 0.0000	 0.0000	 1.00000	  95.7729	   1.1330	   0.5161	   0.0194	   0.5976	   0.2247	  94.4152	1.066e+03	1.136e-01	   4.021	 48634.597
130400	130400	 5.4882	 1.9796	   1.5957	        1.5165	          0.0792	   1.5957	        1.5165	1000000.0000	8.490e-02	1.305e+02	1.537e+03	1.407e+03	 1.0000	 0.0000	 0.0000	 0.0000	 1.00000	  84.2690	   1.1356	   0.5186	   0.0194	   0.5975	   0.2247	  82.9088	8.886e+02	1.136e-01	   4.437	 48867.080
131200	131200	 5.4900	 1.9801	   1.5958	        1.5165	          0.0792	   1.5958	        1.5165	1000000.0000	8.459e-02	1.300e+02	1.537e+03	1.407e+03	 1.0000	 0.0000	 0.0000	 0.0000	 1.00000	  83.9647	   1.1356	   0.5185	   0.0194	   0.5977	   0.2247	  82.6044	8.889e+02	1.136e-01	   5.586	 49271.062
132000	132000	 6.0015	 1.9803	   1.5965	        1.5165	          0.0800	   1.5965	        1.5165	1000000.0000	2.010e-04	3.090e-01	1.537e+03	1.537e+03	 1.0000	 0.0000	 0.0000	 0.0000	 1.00000	   1.5518	   1.1308	   0.5136	   0.0194	   0.5978	   0.2247	   0.1963	9.291e+02	1.136e-01	   4.389	 49505.724
132800	132800	 6.1914	 1.9802	   1.5968	        1.5165	          0.0802	   1.5968	        1.5165	1000000.0000	3.168e-02	4.869e+01	1.537e+03	1.586e+03	 1.0000	 0.0000	 0.0000	 0.0000	 1.00000	  32.2909	   1.1307	   0.5135	   0.0194	   0.5978	   0.2247	  30.9356	1.002e+03	1.136e-01	   4.247	 49754.009
133600	133600	 6.4744	 1.9808	   1.5973	        1.5165	          0.0807	   1.5973	        1.5165	1000000.0000	7.859e-02	1.208e+02	1.537e+03	1.658e+03	 1.0000	 0.0000	 0.0000	 0.0000	 1.00000	  78.1014	   1.1322	   0.5148	   0.0194	   0.5981	   0.2246	  76.7445	1.048e+03	1.136e-01	   4.549	 50041.987
134400	134400	 6.1164	 1.9803	   1.5967	        1.5165	          0.0801	   1.5967	        1.5165	1000000.0000	1.924e-02	2.958e+01	1.537e+03	1.567e+03	 1.0000	 0.0000	 0.0000	 0.0000	 1.00000	  20.1476	   1.1307	   0.5134	   0.0194	   0.5978	   0.2246	  18.7923	9.902e+02	1.136e-01	  10.759	 50400.204
135200	135200	 6.3116	 1.9803	   1.5970	        1.5165	          0.0804	   1.5970	        1.5165	1000000.0000	5.160e-02	7.932e+01	1.537e+03	1.616e+03	 1.0000	 0.0000	 0.0000	 0.0000	 1.00000	  51.7471	   1.1311	   0.5139	   0.0194	   0.5978	   0.2246	  50.3913	1.022e+03	1.136e-01	  10.079	 50743.990
136000	136000	 6.5564	 1.9796	   1.5972	        1.5165	          0.0807	   1.5972	        1.5165	1000000.0000	9.219e-02	1.417e+02	1.537e+03	1.679e+03	 1.0000	 0.0000	 0.0000	 0.0000	 1.00000	  91.3837	   1.1328	   0.5158	   0.0194	   0.5975	   0.2246	  90.0263	1.061e+03	1.136e-01	   4.793	 51028.660
136800	136800	 5.9339	 1.9792	   1.5963	        1.5165	          0.0797	   1.5963	        1.5165	1000000.0000	1.100e-02	1.691e+01	1.537e+03	1.520e+03	 1.0000	 0.0000	 0.0000	 0.0000	 1.00000	  12.1012	   1.1309	   0.5141	   0.0194	   0.5973	   0.2246	  10.7457	9.606e+02	1.136e-01	   4.589	 51331.779
137600	137600	 5.9643	 1.9796	   1.5964	        1.5165	          0.0798	   1.5964	        1.5165	1000000.0000	5.964e-03	9.168e+00	1.537e+03	1.528e+03	 1.0000	 0.0000	 0.0000	 0.0000	 1.00000	   7.1796	   1.1308	   0.5139	   0.0194	   0.5975	   0.2246	   5.8242	9.655e+02	1.136e-01	   5.029	 51710.875
138400	138400	 5.8194	 1.9791	   1.5961	        1.5165	          0.0796	   1.5961	        1.5165	1000000.0000	3.000e-02	4.611e+01	1.537e+03	1.491e+03	 1.0000	 0.0000	 0.0000	 0.0000	 1.00000	  30.6496	   1.1316	   0.5148	   0.0194	   0.5973	   0.2246	  29.2934	9.421e+02	1.136e-01	   4.800	 51994.997
139200	139200	 6.1688	 1.9797	   1.5967	        1.5165	          0.0801	   1.5967	        1.5165	1000000.0000	2.793e-02	4.294e+01	1.537e+03	1.580e+03	 1.0000	 0.0000	 0.0000	 0.0000	 1.00000	  28.6319	   1.1306	   0.5136	   0.0194	   0.5976	   0.2246	  27.2767	9.987e+02	1.136e-01	   4.528	 52302.926
140000	140000	 5.5013	 1.9796	   1.5957	        1.5165	          0.0792	   1.5957	        1.5165	1000000.0000	8.272e-02	1.271e+02	1.537e+03	1.410e+03	 1.0000	 0.0000	 0.0000	 0.0000	 1.00000	  82.1366	   1.1354	   0.5184	   0.0194	   0.5976	   0.2246	  80.7766	8.907e+02	1.136e-01	   4.539	 52807.569
140800	140800	 5.6531	 1.9797	   1.5960	        1.5165	          0.0794	   1.5960	        1.5165	1000000.0000	5.755e-02	8.847e+01	1.537e+03	1.449e+03	 1.0000	 0.0000	 0.0000	 0.0000	 1.00000	  57.5609	   1.1333	   0.5163	   0.0194	   0.5976	   0.2246	  56.2030	9.152e+02	1.136e-01	   5.801	 53061.626
141600	141600	 6.2912	 1.9804	   1.5969	        1.5165	          0.0804	   1.5969	        1.5165	1000000.0000	4.822e-02	7.411e+01	1.537e+03	1.611e+03	 1.0000	 0.0000	 0.0000	 0.0000	 1.00000	  48.4408	   1.1310	   0.5138	   0.0194	   0.5979	   0.2246	  47.0851	1.018e+03	1.136e-01	   4.705	 53305.978
142400	142400	 5.5042	 1.9794	   1.5957	        1.5165	          0.0792	   1.5957	        1.5165	1000000.0000	8.224e-02	1.264e+02	1.537e+03	1.411e+03	 1.0000	 0.0000	 0.0000	 0.0000	 1.00000	  81.6694	   1.1353	   0.5184	   0.0194	   0.5974	   0.2246	  80.3095	8.912e+02	1.136e-01	   6.755	 53567.610
143200	143200	 5.5464	 1.9789	   1.5957	        1.5165	          0.0792	   1.5957	        1.5165	1000000.0000	7.525e-02	1.157e+02	1.537e+03	1.422e+03	 1.0000	 0.0000	 0.0000	 0.0000	 1.00000	  74.8478	   1.1345	   0.5179	   0.0194	   0.5972	   0.2246	  73.4887	8.980e+02	1.136e-01	   4.380	 53956.122
144000	144000	 6.3175	 1.9788	   1.5968	        1.5165	          0.0803	   1.5968	        1.5165	1000000.0000	5.257e-02	8.082e+01	1.537e+03	1.618e+03	 1.0000	 0.0000	 0.0000	 0.0000	 1.00000	  52.6976	   1.1309	   0.5143	   0.0194	   0.5972	   0.2246	  51.3421	1.023e+03	1.136e-01	   8.557	 54281.109
144800	144800	 5.6354	 1.9781	   1.5957	        1.5165	          0.0792	   1.5957	        1.5165	1000000.0000	6.050e-02	9.300e+01	1.537e+03	1.444e+03	 1.0000	 0.0000	 0.0000	 0.0000	 1.00000	  60.4401	   1.1332	   0.5169	   0.0194	   0.5969	   0.2246	  59.0823	9.124e+02	1.136e-01	  11.947	 54651.368
145600	145600	 6.0012	 1.9782	   1.5963	        1.5165	          0.0797	   1.5963	        1.5165	1000000.0000	1.591e-04	2.445e-01	1.537e+03	1.537e+03	 1.0000	 0.0000	 0.0000	 0.0000	 1.00000	   1.5104	   1.1305	   0.5141	   0.0194	   0.5969	   0.2246	   0.1553	8.864e+02	1.136e-01	   5.540	 54943.263
146400	146400	 6.0531	 1.9790	   1.5964	        1.5165	          0.0799	   1.5964	        1.5165	1000000.0000	8.752e-03	1.345e+01	1.537e+03	1.551e+03	 1.0000	 0.0000	 0.0000	 0.0000	 1.00000	   9.9023	   1.1305	   0.5138	   0.0194	   0.5973	   0.2246	   8.5472	9.799e+02	1.136e-01	   6.076	 55219.130
147200	147200	 5.6804	 1.9786	   1.5959	        1.5165	          0.0793	   1.5959	        1.5165	1000000.0000	5.303e-02	8.152e+01	1.537e+03	1.456e+03	 1.0000	 0.0000	 0.0000	 0.0000	 1.00000	  53.1480	   1.1327	   0.5163	   0.0194	   0.5971	   0.2246	  51.7906	9.197e+02	1.136e-01	   4.688	 55601.056
148000	148000	 6.4852	 1.9799	   1.5972	        1.5165	          0.0806	   1.5972	        1.5165	1000000.0000	8.038e-02	1.236e+02	1.537e+03	1.661e+03	 1.0000	 0.0000	 0.0000	 0.0000	 1.00000	  79.8520	   1.1322	   0.5151	   0.0194	   0.5976	   0.2246	  78.4952	1.050e+03	1.136e-01	   3.829	 55862.242
148800	148800	 5.5904	 1.9786	   1.5957	        1.5165	          0.0792	   1.5957	        1.5165	1000000.0000	6.796e-02	1.045e+02	1.537e+03	1.433e+03	 1.0000	 0.0000	 0.0000	 0.0000	 1.00000	  67.7232	   1.1339	   0.5174	   0.0194	   0.5971	   0.2246	  66.3648	9.051e+02	1.136e-01	   5.762	 56174.038
149600	149600	 5.7986	 1.9788	   1.5961	        1.5165	          0.0795	   1.5961	        1.5165	1000000.0000	3.344e-02	5.141e+01	1.537e+03	1.486e+03	 1.0000	 0.0000	 0.0000	 0.0000	 1.00000	  34.0167	   1.1317	   0.5151	   0.0194	   0.5972	   0.2246	  32.6605	9.388e+02	1.136e-01	   4.067	 56563.378
150400	150400	 5.8440	 1.9783	   1.5961	        1.5165	          0.0795	   1.5961	        1.5165	1000000.0000	2.592e-02	3.984e+01	1.537e+03	1.497e+03	 1.0000	 0.0000	 0.0000	 0.0000	 1.00000	  26.6684	   1.1312	   0.5149	   0.0194	   0.5970	   0.2246	  25.3126	9.461e+02	1.136e-01	   4.762	 56825.495
151200	151200	 5.5398	 1.9774	   1.5955	        1.5165	          0.0790	   1.5955	        1.5165	1000000.0000	7.635e-02	1.174e+02	1.537e+03	1.420e+03	 1.0000	 0.0000	 0.0000	 0.0000	 1.00000	  75.9174	   1.1344	   0.5184	   0.0194	   0.5966	   0.2246	  74.5584	8.969e+02	1.136e-01	   3.994	 57096.320
152000	152000	 6.0405	 1.9786	   1.5964	        1.5165	          0.0798	   1.5964	        1.5165	1000000.0000	6.652e-03	1.023e+01	1.537e+03	1.547e+03	 1.0000	 0.0000	 0.0000	 0.0000	 1.00000	   7.8510	   1.1304	   0.5139	   0.0194	   0.5971	   0.2246	   6.4960	9.778e+02	1.136e-01	   5.319	 57321.461
152800	152800	 5.5057	 1.9789	   1.5957	        1.5165	          0.0791	   1.5957	        1.5165	1000000.0000	8.200e-02	1.260e+02	1.537e+03	1.411e+03	 1.0000	 0.0000	 0.0000	 0.0000	 1.00000	  81.4348	   1.1352	   0.5185	   0.0194	   0.5972	   0.2246	  80.0750	8.914e+02	1.136e-01	   4.810	 57577.426
153600	153600	 6.1234	 1.9793	   1.5966	        1.5165	          0.0800	   1.5966	        1.5165	1000000.0000	2.041e-02	3.137e+01	1.537e+03	1.569e+03	 1.0000	 0.0000	 0.0000	 0.0000	 1.00000	  21.2834	   1.1305	   0.5137	   0.0194	   0.5974	   0.2246	  19.9284	9.913e+02	1.136e-01	   5.499	 57853.807
154400	154400	 5.6922	 1.9786	   1.5959	        1.5165	          0.0793	   1.5959	        1.5165	1000000.0000	5.107e-02	7.851e+01	1.537e+03	1.459e+03	 1.0000	 0.0000	 0.0000	 0.0000	 1.00000	  51.2328	   1.1326	   0.5161	   0.0194	   0.5971	   0.2246	  49.8756	9.216e+02	1.136e-01	   7.580	 58217.097
155200	155200	 5.5094	 1.9786	   1.5956	        1.5165	          0.0791	   1.5956	        1.5165	1000000.0000	8.138e-02	1.251e+02	1.537e+03	1.412e+03	 1.0000	 0.0000	 0.0000	 0.0000	 1.00000	  80.8366	   1.1350	   0.5185	   0.0194	   0.5971	   0.2246	  79.4770	8.920e+02	1.136e-01	   5.989	 58658.040
156000	156000	 6.3695	 1.9783	   1.5968	        1.5165	          0.0803	   1.5968	        1.5165	1000000.0000	6.119e-02	9.407e+01	1.537e+03	1.631e+03	 1.0000	 0.0000	 0.0000	 0.0000	 1.00000	  61.1158	   1.1310	   0.5147	   0.0194	   0.5969	   0.2246	  59.7602	1.031e+03	1.135e-01	   7.663	 58927.644
156800	156800	 5.9294	 1.9772	   1.5961	        1.5165	          0.0795	   1.5961	        1.5165	1000000.0000	1.176e-02	1.808e+01	1.537e+03	1.519e+03	 1.0000	 0.0000	 0.0000	 0.0000	 1.00000	  12.8421	   1.1306	   0.5147	   0.0194	   0.5965	   0.2246	  11.4870	9.599e+02	1.135e-01	   8.506	 59296.886
157600	157600	 5.9541	 1.9783	   1.5962	        1.5165	          0.0797	   1.5962	        1.5165	1000000.0000	7.665e-03	1.178e+01	1.537e+03	1.525e+03	 1.0000	 0.0000	 0.0000	 0.0000	 1.00000	   8.8408	   1.1306	   0.5143	   0.0194	   0.5970	   0.2246	   7.4856	9.639e+02	1.136e-01	   4.939	 59597.338
158400	158400	 6.5134	 1.9781	   1.5970	        1.5165	          0.0805	   1.5970	        1.5165	1000000.0000	8.505e-02	1.307e+02	1.537e+03	1.668e+03	 1.0000	 0.0000	 0.0000	 0.0000	 1.00000	  84.4093	   1.1321	   0.5158	   0.0194	   0.5969	   0.2245	  83.0526	1.054e+03	1.135e-01	   4.835	 59838.673
159200	159200	 6.1677	 1.9782	   1.5965	        1.5165	          0.0800	   1.5965	        1.5165	1000000.0000	2.774e-02	4.264e+01	1.537e+03	1.580e+03	 1.0000	 0.0000	 0.0000	 0.0000	 1.00000	  28.4414	   1.1303	   0.5140	   0.0194	   0.5969	   0.2245	  27.0865	9.985e+02	1.136e-01	   4.237	 60109.507
160000	160000	 5.8200	 1.9784	   1.5960	        1.5165	          0.0795	   1.5960	        1.5165	1000000.0000	2.990e-02	4.596e+01	1.537e+03	1.491e+03	 1.0000	 0.0000	 0.0000	 0.0000	 1.00000	  30.5538	   1.1314	   0.5150	   0.0194	   0.5970	   0.2245	  29.1978	9.422e+02	1.136e-01	   4.687	 60416.559
160800	160800	 5.5836	 1.9779	   1.5956	        1.5165	          0.0791	   1.5956	        1.5165	1000000.0000	6.909e-02	1.062e+02	1.537e+03	1.431e+03	 1.0000	 0.0000	 0.0000	 0.0000	 1.00000	  68.8313	   1.1338	   0.5176	   0.0194	   0.5968	   0.2245	  67.4730	9.040e+02	1.136e-01	   4.337	 60659.201
161600	161600	 5.9685	 1.9782	   1.5962	        1.5165	          0.0797	   1.5962	        1.5165	1000000.0000	5.282e-03	8.119e+00	1.537e+03	1.529e+03	 1.0000	 0.0000	 0.0000	 0.0000	 1.00000	   6.5130	   1.1306	   0.5142	   0.0194	   0.5969	   0.2245	   5.1579	9.662e+02	1.136e-01	   7.018	 60997.611
162400	162400	 5.4901	 1.9776	   1.5955	        1.5165	          0.0789	   1.5955	        1.5165	1000000.0000	8.459e-02	1.300e+02	1.537e+03	1.407e+03	 1.0000	 0.0000	 0.0000	 0.0000	 1.00000	  83.9645	   1.1352	   0.5191	   0.0194	   0.5967	   0.2245	  82.6048	8.889e+02	1.136e-01	   4.007	 61368.009
163200	163200	 5.7113	 1.9776	   1.5958	        1.5165	          0.0792	   1.5958	        1.5165	1000000.0000	4.791e-02	7.364e+01	1.537e+03	1.464e+03	 1.0000	 0.0000	 0.0000	 0.0000	 1.00000	  48.1424	   1.1322	   0.5162	   0.0194	   0.5966	   0.2245	  46.7856	9.247e+02	1.136e-01	  13.787	 61718.481
164000	164000	 6.0208	 1.9769	   1.5962	        1.5165	          0.0796	   1.5962	        1.5165	1000000.0000	3.391e-03	5.213e+00	1.537e+03	1.542e+03	 1.0000	 0.0000	 0.0000	 0.0000	 1.00000	   4.6663	   1.1302	   0.5144	   0.0194	   0.5963	   0.2245	   3.3116	9.745e+02	1.135e-01	  10.841	 62193.686
164800	164800	 5.9987	 1.9773	   1.5962	        1.5165	          0.0796	   1.5962	        1.5165	1000000.0000	2.817e-04	4.330e-01	1.537e+03	1.537e+03	 1.0000	 0.0000	 0.0000	 0.0000	 1.00000	   1.6299	   1.1303	   0.5144	   0.0194	   0.5965	   0.2245	   0.2751	9.489e+02	1.135e-01	   4.716	 62539.906
165600	165600	 5.4575	 1.9770	   1.5954	        1.5165	          0.0788	   1.5954	        1.5165	1000000.0000	8.999e-02	1.383e+02	1.537e+03	1.399e+03	 1.0000	 0.0000	 0.0000	 0.0000	 1.00000	  89.2369	   1.1356	   0.5198	   0.0194	   0.5964	   0.2245	  87.8768	8.836e+02	1.135e-01	   5.961	 62802.780
166400	166400	 6.3914	 1.9768	   1.5967	        1.5165	          0.0801	   1.5967	        1.5165	1000000.0000	6.482e-02	9.964e+01	1.537e+03	1.637e+03	 1.0000	 0.0000	 0.0000	 0.0000	 1.00000	  64.6537	   1.1309	   0.5152	   0.0194	   0.5963	   0.2245	  63.2982	1.035e+03	1.135e-01	   4.674	 63037.477
167200	167200	 5.6064	 1.9766	   1.5955	        1.5165	          0.0790	   1.5955	        1.5165	1000000.0000	6.530e-02	1.004e+02	1.537e+03	1.437e+03	 1.0000	 0.0000	 0.0000	 0.0000	 1.00000	  65.1311	   1.1333	   0.5177	   0.0194	   0.5962	   0.2245	  63.7733	9.077e+02	1.135e-01	   4.531	 63282.925
168000	168000	 5.9681	 1.9769	   1.5961	        1.5165	          0.0795	   1.5961	        1.5165	1000000.0000	5.353e-03	8.228e+00	1.537e+03	1.529e+03	 1.0000	 0.0000	 0.0000	 0.0000	 1.00000	   6.5819	   1.1303	   0.5146	   0.0194	   0.5963	   0.2245	   5.2271	9.661e+02	1.135e-01	   4.782	 63549.413
168800	168800	 6.4856	 1.9773	   1.5969	        1.5165	          0.0803	   1.5969	        1.5165	1000000.0000	8.045e-02	1.237e+02	1.537e+03	1.661e+03	 1.0000	 0.0000	 0.0000	 0.0000	 1.00000	  79.9186	   1.1317	   0.5158	   0.0194	   0.5965	   0.2245	  78.5624	1.050e+03	1.135e-01	   4.668	 63882.428
169600	169600	 6.0095	 1.9765	   1.5961	        1.5165	          0.0795	   1.5961	        1.5165	1000000.0000	1.521e-03	2.338e+00	1.537e+03	1.540e+03	 1.0000	 0.0000	 0.0000	 0.0000	 1.00000	   2.8400	   1.1301	   0.5146	   0.0194	   0.5962	   0.2245	   1.4853	9.720e+02	1.135e-01	   4.519	 64208.321
170400	170400	 6.5014	 1.9766	   1.5968	        1.5165	          0.0803	   1.5968	        1.5165	1000000.0000	8.306e-02	1.277e+02	1.537e+03	1.665e+03	 1.0000	 0.0000	 0.0000	 0.0000	 1.00000	  82.4701	   1.1317	   0.5161	   0.0194	   0.5962	   0.2245	  81.1139	1.053e+03	1.135e-01	   5.096	 64439.535
171200	171200	 6.1156	 1.9773	   1.5963	        1.5165	          0.0798	   1.5963	        1.5165	1000000.0000	1.911e-02	2.938e+01	1.537e+03	1.567e+03	 1.0000	 0.0000	 0.0000	 0.0000	 1.00000	  20.0177	   1.1301	   0.5142	   0.0194	   0.5965	   0.2245	  18.6631	9.900e+02	1.135e-01	   5.158	 64700.839
172000	172000	 5.4531	 1.9761	   1.5953	        1.5165	          0.0787	   1.5953	        1.5165	1000000.0000	9.072e-02	1.395e+02	1.537e+03	1.398e+03	 1.0000	 0.0000	 0.0000	 0.0000	 1.00000	  89.9563	   1.1355	   0.5201	   0.0194	   0.5960	   0.2245	  88.5963	8.829e+02	1.135e-01	   5.109	 64980.353
172800	172800	 5.7663	 1.9765	   1.5958	        1.5165	          0.0792	   1.5958	        1.5165	1000000.0000	3.881e-02	5.966e+01	1.537e+03	1.478e+03	 1.0000	 0.0000	 0.0000	 0.0000	 1.00000	  39.2552	   1.1315	   0.5159	   0.0194	   0.5962	   0.2245	  37.8992	9.335e+02	1.135e-01	   4.587	 65263.725
173600	173600	 5.4883	 1.9761	   1.5953	        1.5165	          0.0788	   1.5953	        1.5165	1000000.0000	8.489e-02	1.305e+02	1.537e+03	1.407e+03	 1.0000	 0.0000	 0.0000	 0.0000	 1.00000	  84.2613	   1.1349	   0.5195	   0.0194	   0.5960	   0.2245	  82.9019	8.886e+02	1.135e-01	   4.613	 65588.224
174400	174400	 6.1693	 1.9758	   1.5963	        1.5165	          0.0797	   1.5963	        1.5165	1000000.0000	2.801e-02	4.305e+01	1.537e+03	1.580e+03	 1.0000	 0.0000	 0.0000	 0.0000	 1.00000	  28.7037	   1.1299	   0.5146	   0.0194	   0.5959	   0.2245	  27.3493	9.987e+02	1.135e-01	   5.471	 65881.336
175200	175200	 5.7632	 1.9762	   1.5957	        1.5165	          0.0792	   1.5957	        1.5165	1000000.0000	3.932e-02	6.044e+01	1.537e+03	1.477e+03	 1.0000	 0.0000	 0.0000	 0.0000	 1.00000	  39.7558	   1.1315	   0.5160	   0.0194	   0.5960	   0.2245	  38.3998	9.330e+02	1.135e-01	   4.305	 66112.852
176000	176000	 5.9098	 1.9758	   1.5959	        1.5165	          0.0793	   1.5959	        1.5165	1000000.0000	1.502e-02	2.309e+01	1.537e+03	1.514e+03	 1.0000	 0.0000	 0.0000	 0.0000	 1.00000	  16.0221	   1.1304	   0.5151	   0.0194	   0.5959	   0.2245	  14.6672	9.567e+02	1.135e-01	   5.006	 66336.656
176800	176800	 6.1345	 1.9759	   1.5962	        1.5165	          0.0797	   1.5962	        1.5165	1000000.0000	2.224e-02	3.419e+01	1.537e+03	1.571e+03	 1.0000	 0.0000	 0.0000	 0.0000	 1.00000	  23.0722	   1.1299	   0.5146	   0.0194	   0.5959	   0.2245	  21.7179	9.931e+02	1.135e-01	   4.488	 66622.945
177600	177600	 6.4356	 1.9765	   1.5967	        1.5165	          0.0802	   1.5967	        1.5165	1000000.0000	7.216e-02	1.109e+02	1.537e+03	1.648e+03	 1.0000	 0.0000	 0.0000	 0.0000	 1.00000	  71.8198	   1.1312	   0.5156	   0.0194	   0.5962	   0.2245	  70.4641	1.042e+03	1.135e-01	   4.378	 66926.388
178400	178400	 5.5581	 1.9768	   1.5955	        1.5165	          0.0789	   1.5955	        1.5165	1000000.0000	7.332e-02	1.127e+02	1.537e+03	1.424e+03	 1.0000	 0.0000	 0.0000	 0.0000	 1.00000	  72.9582	   1.1340	   0.5183	   0.0194	   0.5963	   0.2245	  71.5997	8.999e+02	1.135e-01	   4.870	 67195.318
179200	179200	 5.8444	 1.9769	   1.5959	        1.5165	          0.0794	   1.5959	        1.5165	1000000.0000	2.585e-02	3.973e+01	1.537e+03	1.497e+03	 1.0000	 0.0000	 0.0000	 0.0000	 1.00000	  26.5952	   1.1310	   0.5152	   0.0194	   0.5963	   0.2245	  25.2398	9.462e+02	1.135e-01	   4.199	 67457.904
180000	180000	 5.5884	 1.9768	   1.5955	        1.5165	          0.0790	   1.5955	        1.5165	1000000.0000	6.829e-02	1.050e+02	1.537e+03	1.432e+03	 1.0000	 0.0000	 0.0000	 0.0000	 1.00000	  68.0459	   1.1336	   0.5179	   0.0194	   0.5963	   0.2245	  66.6879	9.048e+02	1.135e-01	   4.799	 67724.443
180800	180800	 6.4940	 1.9764	   1.5968	        1.5165	          0.0802	   1.5968	        1.5165	1000000.0000	8.184e-02	1.258e+02	1.537e+03	1.663e+03	 1.0000	 0.0000	 0.0000	 0.0000	 1.00000	  81.2741	   1.1316	   0.5161	   0.0194	   0.5961	   0.2245	  79.9180	1.051e+03	1.135e-01	   4.448	 67960.730
181600	181600	 5.6311	 1.9755	   1.5954	        1.5165	          0.0789	   1.5954	        1.5165	1000000.0000	6.121e-02	9.410e+01	1.537e+03	1.443e+03	 1.0000	 0.0000	 0.0000	 0.0000	 1.00000	  61.1369	   1.1328	   0.5176	   0.0194	   0.5957	   0.2245	  59.7797	9.117e+02	1.135e-01	   7.781	 68232.863
182400	182400	 6.4912	 1.9763	   1.5968	        1.5165	          0.0802	   1.5968	        1.5165	1000000.0000	8.137e-02	1.251e+02	1.537e+03	1.662e+03	 1.0000	 0.0000	 0.0000	 0.0000	 1.00000	  80.8191	   1.1316	   0.5161	   0.0194	   0.5961	   0.2245	  79.4631	1.051e+03	1.135e-01	  10.333	 68624.760
183200	183200	 5.4989	 1.9762	   1.5953	        1.5165	          0.0788	   1.5953	        1.5165	1000000.0000	8.313e-02	1.278e+02	1.537e+03	1.409e+03	 1.0000	 0.0000	 0.0000	 0.0000	 1.00000	  82.5442	   1.1348	   0.5194	   0.0194	   0.5960	   0.2245	  81.1850	8.903e+02	1.135e-01	   8.336	 68891.456
184000	184000	 5.6861	 1.9759	   1.5956	        1.5165	          0.0790	   1.5956	        1.5165	1000000.0000	5.210e-02	8.009e+01	1.537e+03	1.457e+03	 1.0000	 0.0000	 0.0000	 0.0000	 1.00000	  52.2362	   1.1322	   0.5169	   0.0194	   0.5959	   0.2244	  50.8796	9.206e+02	1.135e-01	   4.592	 69162.777
184800	184800	 6.3726	 1.9764	   1.5966	        1.5165	          0.0801	   1.5966	        1.5165	1000000.0000	6.171e-02	9.485e+01	1.537e+03	1.632e+03	 1.0000	 0.0000	 0.0000	 0.0000	 1.00000	  61.6152	   1.1307	   0.5152	   0.0194	   0.5961	   0.2244	  60.2600	1.032e+03	1.135e-01	   4.459	 69475.618
185600	185600	 6.1719	 1.9762	   1.5963	        1.5165	          0.0798	   1.5963	        1.5165	1000000.0000	2.843e-02	4.370e+01	1.537e+03	1.581e+03	 1.0000	 0.0000	 0.0000	 0.0000	 1.00000	  29.1160	   1.1300	   0.5145	   0.0194	   0.5960	   0.2244	  27.7616	9.992e+02	1.135e-01	   4.106	 69734.754
186400	186400	 5.7662	 1.9751	   1.5956	        1.5165	          0.0790	   1.5956	        1.5165	1000000.0000	3.882e-02	5.967e+01	1.537e+03	1.478e+03	 1.0000	 0.0000	 0.0000	 0.0000	 1.00000	  39.2630	   1.1313	   0.5163	   0.0194	   0.5956	   0.2244	  37.9073	9.335e+02	1.135e-01	   4.894	 70011.497
187200	187200	 5.4548	 1.9745	   1.5951	        1.5165	          0.0785	   1.5951	        1.5165	1000000.0000	9.045e-02	1.390e+02	1.537e+03	1.398e+03	 1.0000	 0.0000	 0.0000	 0.0000	 1.00000	  89.6896	   1.1352	   0.5205	   0.0194	   0.5953	   0.2244	  88.3299	8.832e+02	1.135e-01	   4.630	 70244.499
188000	188000	 6.4313	 1.9749	   1.5965	        1.5165	          0.0800	   1.5965	        1.5165	1000000.0000	7.143e-02	1.098e+02	1.537e+03	1.647e+03	 1.0000	 0.0000	 0.0000	 0.0000	 1.00000	  71.1085	   1.1308	   0.5160	   0.0194	   0.5955	   0.2244	  69.7533	1.041e+03	1.135e-01	   4.579	 70596.607
188800	188800	 5.6918	 1.9749	   1.5955	        1.5165	          0.0789	   1.5955	        1.5165	1000000.0000	5.116e-02	7.864e+01	1.537e+03	1.459e+03	 1.0000	 0.0000	 0.0000	 0.0000	 1.00000	  51.3186	   1.1320	   0.5171	   0.0194	   0.5955	   0.2244	  49.9622	9.215e+02	1.135e-01	   3.436	 71044.770
189600	189600	 6.1116	 1.9749	   1.5961	        1.5165	          0.0795	   1.5961	        1.5165	1000000.0000	1.844e-02	2.834e+01	1.537e+03	1.566e+03	 1.0000	 0.0000	 0.0000	 0.0000	 1.00000	  19.3600	   1.1297	   0.5148	   0.0194	   0.5955	   0.2244	  18.0059	9.894e+02	1.135e-01	   4.136	 71289.986
190400	190400	 6.3579	 1.9749	   1.5964	        1.5165	          0.0799	   1.5964	        1.5165	1000000.0000	5.926e-02	9.109e+01	1.537e+03	1.628e+03	 1.0000	 0.0000	 0.0000	 0.0000	 1.00000	  59.2254	   1.1304	   0.5155	   0.0194	   0.5955	   0.2244	  57.8706	1.029e+03	1.135e-01	   3.793	 71678.160
191200	191200	 5.8503	 1.9748	   1.5957	        1.5165	          0.0791	   1.5957	        1.5165	1000000.0000	2.489e-02	3.826e+01	1.537e+03	1.499e+03	 1.0000	 0.0000	 0.0000	 0.0000	 1.00000	  25.6601	   1.1306	   0.5157	   0.0194	   0.5954	   0.2244	  24.3051	9.471e+02	1.135e-01	   4.438	 72004.681
192000	192000	 5.6300	 1.9756	   1.5955	        1.5165	          0.0789	   1.5955	        1.5165	1000000.0000	6.140e-02	9.438e+01	1.537e+03	1.443e+03	 1.0000	 0.0000	 0.0000	 0.0000	 1.00000	  61.3200	   1.1328	   0.5176	   0.0194	   0.5958	   0.2244	  59.9628	9.115e+02	1.135e-01	   6.783	 72428.167
192800	192800	 6.5309	 1.9750	   1.5967	        1.5165	          0.0801	   1.5967	        1.5165	1000000.0000	8.794e-02	1.352e+02	1.537e+03	1.672e+03	 1.0000	 0.0000	 0.0000	 0.0000	 1.00000	  87.2382	   1.1317	   0.5168	   0.0194	   0.5955	   0.2244	  85.8821	1.057e+03	1.135e-01	   4.486	 72819.087
193600	193600	 5.7623	 1.9757	   1.5957	        1.5165	          0.0791	   1.5957	        1.5165	1000000.0000	3.946e-02	6.066e+01	1.537e+03	1.477e+03	 1.0000	 0.0000	 0.0000	 0.0000	 1.00000	  39.8927	   1.1314	   0.5162	   0.0194	   0.5958	   0.2244	  38.5369	9.329e+02	1.135e-01	   5.210	 73107.013
194400	194400	 6.2119	 1.9753	   1.5962	        1.5165	          0.0797	   1.5962	        1.5165	1000000.0000	3.507e-02	5.390e+01	1.537e+03	1.591e+03	 1.0000	 0.0000	 0.0000	 0.0000	 1.00000	  35.5985	   1.1299	   0.5148	   0.0194	   0.5956	   0.2244	  34.2443	1.006e+03	1.135e-01	   4.473	 73424.144
195200	195200	 5.4717	 1.9745	   1.5951	        1.5165	          0.0786	   1.5951	        1.5165	1000000.0000	8.765e-02	1.347e+02	1.537e+03	1.402e+03	 1.0000	 0.0000	 0.0000	 0.0000	 1.00000	  86.9534	   1.1349	   0.5202	   0.0194	   0.5953	   0.2244	  85.5940	8.859e+02	1.135e-01	   5.703	 73700.243
196000	196000	 5.8393	 1.9751	   1.5957	        1.5165	          0.0791	   1.5957	        1.5165	1000000.0000	2.671e-02	4.106e+01	1.537e+03	1.496e+03	 1.0000	 0.0000	 0.0000	 0.0000	 1.00000	  27.4374	   1.1307	   0.5157	   0.0194	   0.5955	   0.2244	  26.0823	9.453e+02	1.135e-01	   5.555	 73997.944
196800	196800	 5.6913	 1.9746	   1.5954	        1.5165	          0.0789	   1.5954	        1.5165	1000000.0000	5.123e-02	7.875e+01	1.537e+03	1.458e+03	 1.0000	 0.0000	 0.0000	 0.0000	 1.00000	  51.3873	   1.1319	   0.5172	   0.0194	   0.5953	   0.2244	  50.0310	9.214e+02	1.135e-01	  10.870	 74249.443
197600	197600	 5.6834	 1.9749	   1.5954	        1.5165	          0.0789	   1.5954	        1.5165	1000000.0000	5.254e-02	8.077e+01	1.537e+03	1.456e+03	 1.0000	 0.0000	 0.0000	 0.0000	 1.00000	  52.6674	   1.1320	   0.5172	   0.0194	   0.5954	   0.2244	  51.3109	9.201e+02	1.135e-01	  13.786	 74527.110
198400	198400	 6.2958	 1.9748	   1.5963	        1.5165	          0.0798	   1.5963	        1.5165	1000000.0000	4.897e-02	7.527e+01	1.537e+03	1.612e+03	 1.0000	 0.0000	 0.0000	 0.0000	 1.00000	  49.1727	   1.1300	   0.5152	   0.0194	   0.5954	   0.2244	  47.8183	1.019e+03	1.135e-01	   5.538	 74802.916
199200	199200	 6.2297	 1.9744	   1.5962	        1.5165	          0.0796	   1.5962	        1.5165	1000000.0000	3.801e-02	5.842e+01	1.537e+03	1.596e+03	 1.0000	 0.0000	 0.0000	 0.0000	 1.00000	  38.4711	   1.1298	   0.5151	   0.0194	   0.5953	   0.2244	  37.1170	1.009e+03	1.135e-01	   4.730	 75121.973
200000	200000	 6.3527	 1.9749	   1.5964	        1.5165	          0.0799	   1.5964	        1.5165	1000000.0000	5.840e-02	8.978e+01	1.537e+03	1.627e+03	 1.0000	 0.0000	 0.0000	 0.0000	 1.00000	  58.3901	   1.1303	   0.5155	   0.0194	   0.5955	   0.2244	  57.0353	1.028e+03	1.135e-01	   5.010	 75395.454
200800	200800	 6.0528	 1.9745	   1.5959	        1.5165	          0.0794	   1.5959	        1.5165	1000000.0000	8.694e-03	1.336e+01	1.537e+03	1.551e+03	 1.0000	 0.0000	 0.0000	 0.0000	 1.00000	   9.8440	   1.1297	   0.5150	   0.0194	   0.5953	   0.2244	   8.4899	9.799e+02	1.135e-01	   4.464	 75676.223
201600	201600	 6.0504	 1.9751	   1.5960	        1.5165	          0.0795	   1.5960	        1.5165	1000000.0000	8.292e-03	1.275e+01	1.537e+03	1.550e+03	 1.0000	 0.0000	 0.0000	 0.0000	 1.00000	   9.4515	   1.1298	   0.5148	   0.0194	   0.5956	   0.2244	   8.0974	9.795e+02	1.135e-01	   3.983	 76004.333
202400	202400	 5.7877	 1.9739	   1.5955	        1.5165	          0.0789	   1.5955	        1.5165	1000000.0000	3.525e-02	5.419e+01	1.537e+03	1.483e+03	 1.0000	 0.0000	 0.0000	 0.0000	 1.00000	  35.7833	   1.1309	   0.5164	   0.0194	   0.5950	   0.2244	  34.4281	9.370e+02	1.135e-01	   4.433	 76252.250
203200	203200	 5.4883	 1.9740	   1.5951	        1.5165	          0.0785	   1.5951	        1.5165	1000000.0000	8.488e-02	1.305e+02	1.537e+03	1.407e+03	 1.0000	 0.0000	 0.0000	 0.0000	 1.00000	  84.2541	   1.1345	   0.5201	   0.0194	   0.5950	   0.2244	  82.8952	8.886e+02	1.135e-01	   3.747	 76545.309
204000	204000	 6.0162	 1.9743	   1.5959	        1.5165	          0.0793	   1.5959	        1.5165	1000000.0000	2.618e-03	4.024e+00	1.537e+03	1.541e+03	 1.0000	 0.0000	 0.0000	 0.0000	 1.00000	   3.9108	   1.1297	   0.5151	   0.0194	   0.5952	   0.2244	   2.5568	9.737e+02	1.135e-01	   6.349	 76833.748
204800	204800	 5.5054	 1.9733	   1.5950	        1.5165	          0.0785	   1.5950	        1.5165	1000000.0000	8.206e-02	1.261e+02	1.537e+03	1.411e+03	 1.0000	 0.0000	 0.0000	 0.0000	 1.00000	  81.4938	   1.1341	   0.5200	   0.0194	   0.5947	   0.2244	  80.1353	8.913e+02	1.135e-01	  11.719	 77102.906
205600	205600	 6.1336	 1.9733	   1.5959	        1.5165	          0.0794	   1.5959	        1.5165	1000000.0000	2.208e-02	3.394e+01	1.537e+03	1.571e+03	 1.0000	 0.0000	 0.0000	 0.0000	 1.00000	  22.9167	   1.1294	   0.5152	   0.0194	   0.5948	   0.2244	  21.5629	9.930e+02	1.135e-01	   4.522	 77374.646
206400	206400	 6.0063	 1.9737	   1.5958	        1.5165	          0.0792	   1.5958	        1.5165	1000000.0000	9.773e-04	1.502e+00	1.537e+03	1.539e+03	 1.0000	 0.0000	 0.0000	 0.0000	 1.00000	   2.3083	   1.1296	   0.5153	   0.0194	   0.5949	   0.2244	   0.9544	9.704e+02	1.135e-01	   5.117	 77614.870
207200	207200	 5.5566	 1.9736	   1.5951	        1.5165	          0.0786	   1.5951	        1.5165	1000000.0000	7.356e-02	1.131e+02	1.537e+03	1.424e+03	 1.0000	 0.0000	 0.0000	 0.0000	 1.00000	  73.1984	   1.1334	   0.5191	   0.0194	   0.5949	   0.2244	  71.8406	8.996e+02	1.135e-01	   4.496	 77928.459
208000	208000	 6.2674	 1.9742	   1.5962	        1.5165	          0.0797	   1.5962	        1.5165	1000000.0000	4.426e-02	6.804e+01	1.537e+03	1.605e+03	 1.0000	 0.0000	 0.0000	 0.0000	 1.00000	  44.5783	   1.1298	   0.5153	   0.0194	   0.5951	   0.2244	  43.2241	1.015e+03	1.135e-01	   5.857	 78172.041
208800	208800	 6.1140	 1.9744	   1.5960	        1.5165	          0.0795	   1.5960	        1.5165	1000000.0000	1.884e-02	2.895e+01	1.537e+03	1.566e+03	 1.0000	 0.0000	 0.0000	 0.0000	 1.00000	  19.7478	   1.1296	   0.5150	   0.0194	   0.5952	   0.2243	  18.3938	9.898e+02	1.135e-01	   4.284	 78426.352
209600	209600	 6.2379	 1.9742	   1.5962	        1.5165	          0.0796	   1.5962	        1.5165	1000000.0000	3.937e-02	6.051e+01	1.537e+03	1.598e+03	 1.0000	 0.0000	 0.0000	 0.0000	 1.00000	  39.7985	   1.1297	   0.5152	   0.0194	   0.5951	   0.2243	  38.4444	1.010e+03	1.135e-01	   5.664	 78798.105
210400	210400	 6.1286	 1.9737	   1.5960	        1.5165	          0.0794	   1.5960	        1.5165	1000000.0000	2.126e-02	3.267e+01	1.537e+03	1.570e+03	 1.0000	 0.0000	 0.0000	 0.0000	 1.00000	  22.1122	   1.1295	   0.5151	   0.0194	   0.5949	   0.2243	  20.7584	9.922e+02	1.135e-01	   5.914	 79205.083
211200	211200	 5.9987	 1.9729	   1.5957	        1.5165	          0.0791	   1.5957	        1.5165	1000000.0000	2.870e-04	4.411e-01	1.537e+03	1.537e+03	 1.0000	 0.0000	 0.0000	 0.0000	 1.00000	   1.6341	   1.1295	   0.5155	   0.0194	   0.5946	   0.2243	   0.2802	9.475e+02	1.135e-01	   3.329	 79516.866
212000	212000	 5.6464	 1.9725	   1.5951	        1.5165	          0.0786	   1.5951	        1.5165	1000000.0000	5.868e-02	9.020e+01	1.537e+03	1.447e+03	 1.0000	 0.0000	 0.0000	 0.0000	 1.00000	  58.6610	   1.1320	   0.5182	   0.0194	   0.5944	   0.2243	  57.3046	9.142e+02	1.135e-01	   3.972	 79773.130
212800	212800	 6.2077	 1.9728	   1.5960	        1.5165	          0.0794	   1.5960	        1.5165	1000000.0000	3.436e-02	5.282e+01	1.537e+03	1.590e+03	 1.0000	 0.0000	 0.0000	 0.0000	 1.00000	  34.9095	   1.1294	   0.5155	   0.0194	   0.5945	   0.2243	  33.5558	1.005e+03	1.135e-01	   4.288	 80046.659
213600	213600	 6.4540	 1.9732	   1.5964	        1.5165	          0.0798	   1.5964	        1.5165	1000000.0000	7.520e-02	1.156e+02	1.537e+03	1.653e+03	 1.0000	 0.0000	 0.0000	 0.0000	 1.00000	  74.7918	   1.1307	   0.5166	   0.0194	   0.5947	   0.2243	  73.4368	1.045e+03	1.135e-01	   4.976	 80363.046
214400	214400	 5.4785	 1.9732	   1.5950	        1.5165	          0.0784	   1.5950	        1.5165	1000000.0000	8.652e-02	1.330e+02	1.537e+03	1.404e+03	 1.0000	 0.0000	 0.0000	 0.0000	 1.00000	  85.8544	   1.1346	   0.5205	   0.0194	   0.5947	   0.2243	  84.4955	8.870e+02	1.135e-01	  13.391	 80619.955
215200	215200	 6.3815	 1.9736	   1.5963	        1.5165	          0.0798	   1.5963	        1.5165	1000000.0000	6.318e-02	9.711e+01	1.537e+03	1.634e+03	 1.0000	 0.0000	 0.0000	 0.0000	 1.00000	  63.0518	   1.1303	   0.5160	   0.0194	   0.5949	   0.2243	  61.6972	1.033e+03	1.135e-01	   4.276	 80930.022
216000	216000	 6.1734	 1.9728	   1.5959	        1.5165	          0.0794	   1.5959	        1.5165	1000000.0000	2.867e-02	4.408e+01	1.537e+03	1.581e+03	 1.0000	 0.0000	 0.0000	 0.0000	 1.00000	  29.3552	   1.1293	   0.5154	   0.0194	   0.5945	   0.2243	  28.0016	9.994e+02	1.135e-01	   8.062	 81197.206
216800	216800	 6.0587	 1.9725	   1.5957	        1.5165	          0.0792	   1.5957	        1.5165	1000000.0000	9.658e-03	1.485e+01	1.537e+03	1.552e+03	 1.0000	 0.0000	 0.0000	 0.0000	 1.00000	  10.7850	   1.1293	   0.5155	   0.0194	   0.5944	   0.2243	   9.4314	9.808e+02	1.135e-01	   4.083	 81424.542
217600	217600	 6.0096	 1.9721	   1.5956	        1.5165	          0.0791	   1.5956	        1.5165	1000000.0000	1.521e-03	2.339e+00	1.537e+03	1.540e+03	 1.0000	 0.0000	 0.0000	 0.0000	 1.00000	   2.8394	   1.1293	   0.5157	   0.0194	   0.5942	   0.2243	   1.4858	9.720e+02	1.135e-01	   4.672	 81685.229
218400	218400	 6.2008	 1.9727	   1.5959	        1.5165	          0.0794	   1.5959	        1.5165	1000000.0000	3.322e-02	5.107e+01	1.537e+03	1.588e+03	 1.0000	 0.0000	 0.0000	 0.0000	 1.00000	  33.7991	   1.1294	   0.5155	   0.0194	   0.5945	   0.2243	  32.4454	1.004e+03	1.135e-01	   4.636	 81944.461
219200	219200	 6.0328	 1.9726	   1.5957	        1.5165	          0.0791	   1.5957	        1.5165	1000000.0000	5.374e-03	8.261e+00	1.537e+03	1.545e+03	 1.0000	 0.0000	 0.0000	 0.0000	 1.00000	   6.6021	   1.1294	   0.5155	   0.0194	   0.5944	   0.2243	   5.2484	9.766e+02	1.135e-01	   5.418	 82238.915
220000	220000	 5.5729	 1.9722	   1.5950	        1.5165	          0.0784	   1.5950	        1.5165	1000000.0000	7.086e-02	1.089e+02	1.537e+03	1.428e+03	 1.0000	 0.0000	 0.0000	 0.0000	 1.00000	  70.5610	   1.1329	   0.5193	   0.0194	   0.5942	   0.2243	  69.2037	9.023e+02	1.135e-01	   4.215	 82546.158
220800	220800	 6.1690	 1.9721	   1.5958	        1.5165	          0.0793	   1.5958	        1.5165	1000000.0000	2.794e-02	4.295e+01	1.537e+03	1.580e+03	 1.0000	 0.0000	 0.0000	 0.0000	 1.00000	  28.6421	   1.1292	   0.5156	   0.0194	   0.5942	   0.2243	  27.2886	9.987e+02	1.135e-01	   6.323	 82816.528
221600	221600	 5.6841	 1.9718	   1.5951	        1.5165	          0.0786	   1.5951	        1.5165	1000000.0000	5.244e-02	8.061e+01	1.537e+03	1.457e+03	 1.0000	 0.0000	 0.0000	 0.0000	 1.00000	  52.5643	   1.1315	   0.5180	   0.0194	   0.5941	   0.2243	  51.2085	9.203e+02	1.135e-01	   4.049	 83087.053
222400	222400	 6.1189	 1.9727	   1.5958	        1.5165	          0.0793	   1.5958	        1.5165	1000000.0000	1.964e-02	3.018e+01	1.537e+03	1.567e+03	 1.0000	 0.0000	 0.0000	 0.0000	 1.00000	  20.5292	   1.1293	   0.5154	   0.0194	   0.5945	   0.2243	  19.1756	9.906e+02	1.135e-01	   4.321	 83368.517
223200	223200	 5.9733	 1.9730	   1.5956	        1.5165	          0.0791	   1.5956	        1.5165	1000000.0000	4.488e-03	6.899e+00	1.537e+03	1.530e+03	 1.0000	 0.0000	 0.0000	 0.0000	 1.00000	   5.7366	   1.1296	   0.5156	   0.0194	   0.5946	   0.2243	   4.3827	9.670e+02	1.135e-01	   5.426	 83637.504
224000	224000	 6.0767	 1.9726	   1.5958	        1.5165	          0.0792	   1.5958	        1.5165	1000000.0000	1.264e-02	1.943e+01	1.537e+03	1.557e+03	 1.0000	 0.0000	 0.0000	 0.0000	 1.00000	  13.6996	   1.1293	   0.5154	   0.0194	   0.5945	   0.2243	  12.3461	9.837e+02	1.135e-01	   4.592	 83855.387
224800	224800	 5.5441	 1.9722	   1.5949	        1.5165	          0.0784	   1.5949	        1.5165	1000000.0000	7.565e-02	1.163e+02	1.537e+03	1.421e+03	 1.0000	 0.0000	 0.0000	 0.0000	 1.00000	  75.2377	   1.1334	   0.5197	   0.0194	   0.5943	   0.2243	  73.8800	8.976e+02	1.135e-01	   4.278	 84240.529
225600	225600	 6.5741	 1.9732	   1.5965	        1.5165	          0.0800	   1.5965	        1.5165	1000000.0000	9.511e-02	1.462e+02	1.537e+03	1.683e+03	 1.0000	 0.0000	 0.0000	 0.0000	 1.00000	  94.2337	   1.1318	   0.5177	   0.0194	   0.5947	   0.2243	  92.8776	1.064e+03	1.135e-01	   4.542	 84446.958
226400	226400	 5.7044	 1.9726	   1.5952	        1.5165	          0.0787	   1.5952	        1.5165	1000000.0000	4.908e-02	7.544e+01	1.537e+03	1.462e+03	 1.0000	 0.0000	 0.0000	 0.0000	 1.00000	  49.2810	   1.1314	   0.5175	   0.0194	   0.5945	   0.2243	  47.9253	9.235e+02	1.135e-01	   4.116	 84652.219
227200	227200	 6.2322	 1.9727	   1.5960	        1.5165	          0.0794	   1.5960	        1.5165	1000000.0000	3.842e-02	5.906e+01	1.537e+03	1.596e+03	 1.0000	 0.0000	 0.0000	 0.0000	 1.00000	  38.8743	   1.1294	   0.5156	   0.0194	   0.5945	   0.2243	  37.5206	1.009e+03	1.135e-01	   4.113	 84886.800
228000	228000	 5.8976	 1.9729	   1.5955	        1.5165	          0.0790	   1.5955	        1.5165	1000000.0000	1.705e-02	2.621e+01	1.537e+03	1.511e+03	 1.0000	 0.0000	 0.0000	 0.0000	 1.00000	  18.0024	   1.1299	   0.5160	   0.0194	   0.5945	   0.2243	  16.6483	9.548e+02	1.135e-01	   4.442	 85187.802
228800	228800	 6.4874	 1.9724	   1.5963	        1.5165	          0.0798	   1.5963	        1.5165	1000000.0000	8.072e-02	1.241e+02	1.537e+03	1.661e+03	 1.0000	 0.0000	 0.0000	 0.0000	 1.00000	  80.1835	   1.1308	   0.5171	   0.0194	   0.5943	   0.2243	  78.8284	1.050e+03	1.135e-01	   4.329	 85470.743
229600	229600	 5.6804	 1.9720	   1.5951	        1.5165	          0.0786	   1.5951	        1.5165	1000000.0000	5.306e-02	8.156e+01	1.537e+03	1.456e+03	 1.0000	 0.0000	 0.0000	 0.0000	 1.00000	  53.1688	   1.1316	   0.5180	   0.0194	   0.5942	   0.2243	  51.8130	9.196e+02	1.135e-01	   4.648	 85746.714
230400	230400	 5.8522	 1.9715	   1.5953	        1.5165	          0.0788	   1.5953	        1.5165	1000000.0000	2.458e-02	3.778e+01	1.537e+03	1.499e+03	 1.0000	 0.0000	 0.0000	 0.0000	 1.00000	  25.3547	   1.1299	   0.5166	   0.0194	   0.5939	   0.2243	  24.0005	9.474e+02	1.135e-01	   4.813	 86033.446
231200	231200	 6.2896	 1.9712	   1.5959	        1.5165	          0.0794	   1.5959	        1.5165	1000000.0000	4.793e-02	7.368e+01	1.537e+03	1.611e+03	 1.0000	 0.0000	 0.0000	 0.0000	 1.00000	  48.1613	   1.1294	   0.5161	   0.0194	   0.5938	   0.2243	  46.8077	1.018e+03	1.135e-01	   2.929	 86408.753
232000	232000	 6.4334	 1.9711	   1.5961	        1.5165	          0.0796	   1.5961	        1.5165	1000000.0000	7.178e-02	1.103e+02	1.537e+03	1.647e+03	 1.0000	 0.0000	 0.0000	 0.0000	 1.00000	  71.4525	   1.1302	   0.5170	   0.0194	   0.5938	   0.2243	  70.0980	1.042e+03	1.135e-01	   3.797	 86678.245
232800	232800	 6.4487	 1.9717	   1.5962	        1.5165	          0.0796	   1.5962	        1.5165	1000000.0000	7.432e-02	1.142e+02	1.537e+03	1.651e+03	 1.0000	 0.0000	 0.0000	 0.0000	 1.00000	  73.9302	   1.1304	   0.5169	   0.0194	   0.5941	   0.2243	  72.5756	1.044e+03	1.135e-01	   5.989	 86968.666
233600	233600	 5.4892	 1.9711	   1.5947	        1.5165	          0.0782	   1.5947	        1.5165	1000000.0000	8.476e-02	1.303e+02	1.537e+03	1.407e+03	 1.0000	 0.0000	 0.0000	 0.0000	 1.00000	  84.1276	   1.1340	   0.5208	   0.0194	   0.5937	   0.2243	  82.7693	8.887e+02	1.135e-01	   5.368	 87252.117
234400	234400	 6.3288	 1.9709	   1.5959	        1.5165	          0.0794	   1.5959	        1.5165	1000000.0000	5.444e-02	8.368e+01	1.537e+03	1.621e+03	 1.0000	 0.0000	 0.0000	 0.0000	 1.00000	  54.5168	   1.1295	   0.5164	   0.0194	   0.5937	   0.2242	  53.1631	1.025e+03	1.135e-01	   3.633	 87613.101
235200	235200	 5.9531	 1.9715	   1.5955	        1.5165	          0.0789	   1.5955	        1.5165	1000000.0000	7.846e-03	1.206e+01	1.537e+03	1.525e+03	 1.0000	 0.0000	 0.0000	 0.0000	 1.00000	   9.0157	   1.1294	   0.5160	   0.0194	   0.5940	   0.2242	   7.6621	9.637e+02	1.135e-01	   3.379	 87889.299
236000	236000	 6.6029	 1.9719	   1.5964	        1.5165	          0.0799	   1.5964	        1.5165	1000000.0000	9.988e-02	1.535e+02	1.537e+03	1.691e+03	 1.0000	 0.0000	 0.0000	 0.0000	 1.00000	  98.8954	   1.1319	   0.5183	   0.0194	   0.5941	   0.2242	  97.5393	1.069e+03	1.135e-01	   3.841	 88224.162
236800	236800	 6.5702	 1.9715	   1.5963	        1.5165	          0.0798	   1.5963	        1.5165	1000000.0000	9.445e-02	1.452e+02	1.537e+03	1.682e+03	 1.0000	 0.0000	 0.0000	 0.0000	 1.00000	  93.5906	   1.1315	   0.5181	   0.0194	   0.5940	   0.2242	  92.2349	1.064e+03	1.135e-01	   6.399	 88517.143
237600	237600	 5.6351	 1.9712	   1.5950	        1.5165	          0.0784	   1.5950	        1.5165	1000000.0000	6.057e-02	9.311e+01	1.537e+03	1.444e+03	 1.0000	 0.0000	 0.0000	 0.0000	 1.00000	  60.5069	   1.1319	   0.5187	   0.0194	   0.5938	   0.2242	  59.1507	9.123e+02	1.135e-01	   2.466	 88984.935
238400	238400	 6.5112	 1.9718	   1.5963	        1.5165	          0.0797	   1.5963	        1.5165	1000000.0000	8.468e-02	1.302e+02	1.537e+03	1.667e+03	 1.0000	 0.0000	 0.0000	 0.0000	 1.00000	  84.0501	   1.1309	   0.5174	   0.0194	   0.5941	   0.2242	  82.6949	1.054e+03	1.135e-01	   6.842	 89249.248
239200	239200	 5.9066	 1.9712	   1.5953	        1.5165	          0.0788	   1.5953	        1.5165	1000000.0000	1.555e-02	2.390e+01	1.537e+03	1.513e+03	 1.0000	 0.0000	 0.0000	 0.0000	 1.00000	  16.5401	   1.1296	   0.5163	   0.0194	   0.5938	   0.2242	  15.1863	9.562e+02	1.135e-01	   4.808	 89598.918
240000	240000	 5.6847	 1.9705	   1.5950	        1.5165	          0.0784	   1.5950	        1.5165	1000000.0000	5.235e-02	8.047e+01	1.537e+03	1.457e+03	 1.0000	 0.0000	 0.0000	 0.0000	 1.00000	  52.4797	   1.1312	   0.5183	   0.0194	   0.5935	   0.2242	  51.1242	9.203e+02	1.135e-01	   4.671	 90052.272
240800	240800	 6.1724	 1.9707	   1.5957	        1.5165	          0.0791	   1.5957	        1.5165	1000000.0000	2.850e-02	4.381e+01	1.537e+03	1.581e+03	 1.0000	 0.0000	 0.0000	 0.0000	 1.00000	  29.1833	   1.1290	   0.5160	   0.0194	   0.5936	   0.2242	  27.8302	9.992e+02	1.135e-01	   7.895	 90392.210
241600	241600	 6.0122	 1.9715	   1.5955	        1.5165	          0.0790	   1.5955	        1.5165	1000000.0000	1.951e-03	2.998e+00	1.537e+03	1.540e+03	 1.0000	 0.0000	 0.0000	 0.0000	 1.00000	   3.2583	   1.1292	   0.5159	   0.0194	   0.5939	   0.2242	   1.9049	9.729e+02	1.135e-01	  10.618	 90662.397
242400	242400	 5.9151	 1.9710	   1.5953	        1.5165	          0.0788	   1.5953	        1.5165	1000000.0000	1.415e-02	2.174e+01	1.537e+03	1.515e+03	 1.0000	 0.0000	 0.0000	 0.0000	 1.00000	  15.1681	   1.1295	   0.5163	   0.0194	   0.5937	   0.2242	  13.8144	9.576e+02	1.135e-01	   7.054	 91086.185
243200	243200	 5.7118	 1.9702	   1.5950	        1.5165	          0.0784	   1.5950	        1.5165	1000000.0000	4.785e-02	7.356e+01	1.537e+03	1.464e+03	 1.0000	 0.0000	 0.0000	 0.0000	 1.00000	  48.0849	   1.1309	   0.5181	   0.0194	   0.5933	   0.2242	  46.7299	9.247e+02	1.135e-01	  10.056	 91424.357
244000	244000	 5.8072	 1.9702	   1.5951	        1.5165	          0.0785	   1.5951	        1.5165	1000000.0000	3.204e-02	4.925e+01	1.537e+03	1.488e+03	 1.0000	 0.0000	 0.0000	 0.0000	 1.00000	  32.6399	   1.1300	   0.5172	   0.0194	   0.5934	   0.2242	  31.2857	9.402e+02	1.135e-01	   3.873	 91824.189
244800	244800	 6.4365	 1.9701	   1.5960	        1.5165	          0.0794	   1.5960	        1.5165	1000000.0000	7.229e-02	1.111e+02	1.537e+03	1.648e+03	 1.0000	 0.0000	 0.0000	 0.0000	 1.00000	  71.9476	   1.1300	   0.5173	   0.0194	   0.5933	   0.2242	  70.5934	1.042e+03	1.135e-01	   4.868	 92266.561
245600	245600	 6.5315	 1.9709	   1.5962	        1.5165	          0.0797	   1.5962	        1.5165	1000000.0000	8.804e-02	1.353e+02	1.537e+03	1.672e+03	 1.0000	 0.0000	 0.0000	 0.0000	 1.00000	  87.3295	   1.1310	   0.5179	   0.0194	   0.5937	   0.2242	  85.9743	1.057e+03	1.135e-01	   7.751	 92605.713